LabVIEW Measurement	
Writer_Version	2
Reader_Version	2
Separator	
Decimal_Separator	.
Multi_Headings	Yes
X_Columns	Multi
Time_Pref	Absolute
Date	2017/10/17
Time	14:56:37.1654938201904296874
***End_of_Header***	
	
***Start_Special***								
Wfm_Sclr_Meas								
Chan 0								
	Value	Units	Hi_Lvl	Mid_Lvl	Lo_Lvl	Lvl_Units	Units_Method	Other_Chan
Voltage Average	0.276	V	-	-	-	-	-	-
Frequency	NaN	Hz	-	50	-	Percentage	Base-Top	-
Chan 1								
	Value	Units	Hi_Lvl	Mid_Lvl	Lo_Lvl	Lvl_Units	Units_Method	Other_Chan
Voltage Average	0.304	V	-	-	-	-	-	-
***End_Special***								
Channels	2							
Samples	5000		5000					
Date	2017/10/17		2017/10/17					
Time	14:56:37.1654938201904296874		14:56:37.1654938201904296874					
Y_Unit_Label	V		V					
X_Dimension	Time		Time					
X0	-1.9991999999999997E-4		-1.9991999999999997E-4					
Delta_X	4.000000E-7		4.000000E-7					
***End_of_Header***								
X_Value	Chan 0	X_Value	Chan 1	Comment				
-0.00019992	0.27942	-0.00019992	0.33408
-0.00019952	0.28077	-0.00019952	0.32694
-0.00019912	0.27942	-0.00019912	0.32475
-0.00019872	0.27942	-0.00019872	0.31926
-0.00019832	0.28023	-0.00019832	0.31186
-0.00019792	0.27996	-0.00019792	0.30884
-0.00019752	0.27996	-0.00019752	0.3017
-0.00019712	0.27888	-0.00019712	0.29841
-0.00019672	0.27942	-0.00019672	0.29402
-0.00019632	0.27969	-0.00019632	0.28771
-0.00019592	0.2805	-0.00019592	0.28305
-0.00019552	0.27969	-0.00019552	0.27838
-0.00019512	0.28158	-0.00019512	0.2718
-0.00019472	0.28077	-0.00019472	0.26741
-0.00019432	0.27969	-0.00019432	0.25918
-0.00019392	0.27969	-0.00019392	0.25424
-0.00019352	0.27888	-0.00019352	0.25013
-0.00019312	0.28104	-0.00019312	0.24382
-0.00019272	0.27806	-0.00019272	0.23613
-0.00019232	0.28158	-0.00019232	0.23092
-0.00019192	0.28023	-0.00019192	0.22489
-0.00019152	0.2786	-0.00019152	0.21775
-0.00019112	0.27969	-0.00019112	0.21199
-0.00019072	0.27915	-0.00019072	0.20294
-0.00019032	0.27833	-0.00019032	0.19718
-0.00018992	0.28104	-0.00018992	0.18977
-0.00018952	0.28104	-0.00018952	0.18346
-0.00018912	0.2786	-0.00018912	0.17523
-0.00018872	0.28023	-0.00018872	0.16727
-0.00018832	0.27942	-0.00018832	0.16069
-0.00018792	0.27969	-0.00018792	0.15301
-0.00018752	0.27996	-0.00018752	0.14423
-0.00018712	0.28158	-0.00018712	0.13929
-0.00018672	0.27942	-0.00018672	0.12694
-0.00018632	0.27888	-0.00018632	0.12228
-0.00018592	0.27996	-0.00018592	0.11377
-0.00018552	0.28104	-0.00018552	0.10472
-0.00018512	0.2786	-0.00018512	0.09622
-0.00018472	0.27915	-0.00018472	0.08716
-0.00018432	0.28077	-0.00018432	0.07893
-0.00018392	0.27969	-0.00018392	0.06933
-0.00018352	0.27806	-0.00018352	0.05753
-0.00018312	0.27915	-0.00018312	0.0515
-0.00018272	0.28023	-0.00018272	0.04107
-0.00018232	0.2805	-0.00018232	0.03311
-0.00018192	0.27996	-0.00018192	0.02296
-0.00018152	0.27969	-0.00018152	0.01473
-0.00018112	0.28131	-0.00018112	0.00376
-0.00018072	0.27996	-0.00018072	-0.0042
-0.00018032	0.28077	-0.00018032	-0.01298
-0.00017992	0.27996	-0.00017992	-0.02066
-0.00017952	0.28023	-0.00017952	-0.02971
-0.00017912	0.28023	-0.00017912	-0.03657
-0.00017872	0.27969	-0.00017872	-0.04919
-0.00017832	0.27915	-0.00017832	-0.05495
-0.00017792	0.28023	-0.00017792	-0.06291
-0.00017752	0.27969	-0.00017752	-0.07306
-0.00017712	0.27942	-0.00017712	-0.07937
-0.00017672	0.27942	-0.00017672	-0.08568
-0.00017632	0.27942	-0.00017632	-0.09583
-0.00017592	0.27942	-0.00017592	-0.10351
-0.00017552	0.2786	-0.00017552	-0.10982
-0.00017512	0.28023	-0.00017512	-0.1175
-0.00017472	0.27942	-0.00017472	-0.12327
-0.00017432	0.27833	-0.00017432	-0.1304
-0.00017392	0.27969	-0.00017392	-0.13369
-0.00017352	0.27752	-0.00017352	-0.14
-0.00017312	0.2786	-0.00017312	-0.14494
-0.00017272	0.27833	-0.00017272	-0.1518
-0.00017232	0.27806	-0.00017232	-0.15591
-0.00017192	0.2786	-0.00017192	-0.1603
-0.00017152	0.27888	-0.00017152	-0.16606
-0.00017112	0.2786	-0.00017112	-0.16991
-0.00017072	0.2786	-0.00017072	-0.1732
-0.00017032	0.27752	-0.00017032	-0.17841
-0.00016992	0.27888	-0.00016992	-0.17951
-0.00016952	0.2786	-0.00016952	-0.18061
-0.00016912	0.27942	-0.00016912	-0.18307
-0.00016872	0.27752	-0.00016872	-0.18884
-0.00016832	0.27779	-0.00016832	-0.19021
-0.00016792	0.27725	-0.00016792	-0.19405
-0.00016752	0.2786	-0.00016752	-0.19515
-0.00016712	0.27698	-0.00016712	-0.20036
-0.00016672	0.27833	-0.00016672	-0.20008
-0.00016632	0.2786	-0.00016632	-0.2031
-0.00016592	0.27915	-0.00016592	-0.20557
-0.00016552	0.2786	-0.00016552	-0.20612
-0.00016512	0.27888	-0.00016512	-0.20914
-0.00016472	0.27725	-0.00016472	-0.21161
-0.00016432	0.27779	-0.00016432	-0.21024
-0.00016392	0.27806	-0.00016392	-0.21408
-0.00016352	0.2759	-0.00016352	-0.2149
-0.00016312	0.27888	-0.00016312	-0.21682
-0.00016272	0.27969	-0.00016272	-0.21874
-0.00016232	0.2786	-0.00016232	-0.21929
-0.00016192	0.27833	-0.00016192	-0.22148
-0.00016152	0.27644	-0.00016152	-0.22176
-0.00016112	0.2786	-0.00016112	-0.22505
-0.00016072	0.27806	-0.00016072	-0.22395
-0.00016032	0.27779	-0.00016032	-0.22423
-0.00015992	0.27806	-0.00015992	-0.22642
-0.00015952	0.27779	-0.00015952	-0.22752
-0.00015912	0.27725	-0.00015912	-0.22725
-0.00015872	0.27779	-0.00015872	-0.22999
-0.00015832	0.27752	-0.00015832	-0.22971
-0.00015792	0.27725	-0.00015792	-0.23136
-0.00015752	0.27725	-0.00015752	-0.23136
-0.00015712	0.27671	-0.00015712	-0.2341
-0.00015672	0.27617	-0.00015672	-0.23356
-0.00015632	0.27563	-0.00015632	-0.23575
-0.00015592	0.27644	-0.00015592	-0.2352
-0.00015552	0.2786	-0.00015552	-0.23575
-0.00015512	0.27644	-0.00015512	-0.23849
-0.00015472	0.27671	-0.00015472	-0.24096
-0.00015432	0.27536	-0.00015432	-0.23987
-0.00015392	0.27563	-0.00015392	-0.24288
-0.00015352	0.2759	-0.00015352	-0.24535
-0.00015312	0.2759	-0.00015312	-0.24672
-0.00015272	0.27698	-0.00015272	-0.24782
-0.00015232	0.27806	-0.00015232	-0.25139
-0.00015192	0.27725	-0.00015192	-0.25331
-0.00015152	0.27644	-0.00015152	-0.25797
-0.00015112	0.27779	-0.00015112	-0.26017
-0.00015072	0.27725	-0.00015072	-0.26456
-0.00015032	0.27725	-0.00015032	-0.26922
-0.00014992	0.2759	-0.00014992	-0.27581
-0.00014952	0.27427	-0.00014952	-0.2791
-0.00014912	0.27617	-0.00014912	-0.28294
-0.00014872	0.27671	-0.00014872	-0.28651
-0.00014832	0.2759	-0.00014832	-0.29144
-0.00014792	0.27536	-0.00014792	-0.29638
-0.00014752	0.27536	-0.00014752	-0.2972
-0.00014712	0.2759	-0.00014712	-0.30022
-0.00014672	0.27644	-0.00014672	-0.30489
-0.00014632	0.27455	-0.00014632	-0.30736
-0.00014592	0.2759	-0.00014592	-0.30873
-0.00014552	0.2759	-0.00014552	-0.31092
-0.00014512	0.27455	-0.00014512	-0.30928
-0.00014472	0.27617	-0.00014472	-0.31284
-0.00014432	0.27671	-0.00014432	-0.31449
-0.00014392	0.27455	-0.00014392	-0.31641
-0.00014352	0.274	-0.00014352	-0.31751
-0.00014312	0.27563	-0.00014312	-0.32025
-0.00014272	0.27427	-0.00014272	-0.32052
-0.00014232	0.27455	-0.00014232	-0.32107
-0.00014192	0.27617	-0.00014192	-0.32135
-0.00014152	0.27509	-0.00014152	-0.32354
-0.00014112	0.27563	-0.00014112	-0.32437
-0.00014072	0.27536	-0.00014072	-0.32354
-0.00014032	0.27427	-0.00014032	-0.32327
-0.00013992	0.27563	-0.00013992	-0.32629
-0.00013952	0.27509	-0.00013952	-0.32683
-0.00013912	0.27617	-0.00013912	-0.32766
-0.00013872	0.27563	-0.00013872	-0.32464
-0.00013832	0.27373	-0.00013832	-0.32793
-0.00013792	0.27482	-0.00013792	-0.32793
-0.00013752	0.27482	-0.00013752	-0.32738
-0.00013712	0.2759	-0.00013712	-0.32876
-0.00013672	0.27509	-0.00013672	-0.32738
-0.00013632	0.27346	-0.00013632	-0.32793
-0.00013592	0.2759	-0.00013592	-0.32903
-0.00013552	0.27427	-0.00013552	-0.32903
-0.00013512	0.27346	-0.00013512	-0.32985
-0.00013472	0.274	-0.00013472	-0.32848
-0.00013432	0.27373	-0.00013432	-0.32683
-0.00013392	0.27346	-0.00013392	-0.32985
-0.00013352	0.27427	-0.00013352	-0.32766
-0.00013312	0.27563	-0.00013312	-0.32738
-0.00013272	0.27292	-0.00013272	-0.32876
-0.00013232	0.27455	-0.00013232	-0.32821
-0.00013192	0.27509	-0.00013192	-0.32629
-0.00013152	0.27319	-0.00013152	-0.32629
-0.00013112	0.27373	-0.00013112	-0.32354
-0.00013072	0.27238	-0.00013072	-0.32437
-0.00013032	0.27427	-0.00013032	-0.32327
-0.00012992	0.27427	-0.00012992	-0.32162
-0.00012952	0.27455	-0.00012952	-0.32382
-0.00012912	0.27482	-0.00012912	-0.31943
-0.00012872	0.274	-0.00012872	-0.31888
-0.00012832	0.27346	-0.00012832	-0.31696
-0.00012792	0.27211	-0.00012792	-0.31531
-0.00012752	0.27238	-0.00012752	-0.30955
-0.00012712	0.27427	-0.00012712	-0.30708
-0.00012672	0.27373	-0.00012672	-0.30351
-0.00012632	0.27238	-0.00012632	-0.29858
-0.00012592	0.27292	-0.00012592	-0.29391
-0.00012552	0.27238	-0.00012552	-0.28815
-0.00012512	0.27292	-0.00012512	-0.28239
-0.00012472	0.274	-0.00012472	-0.27553
-0.00012432	0.27211	-0.00012432	-0.26867
-0.00012392	0.27292	-0.00012392	-0.26044
-0.00012352	0.27319	-0.00012352	-0.25111
-0.00012312	0.27238	-0.00012312	-0.24261
-0.00012272	0.27346	-0.00012272	-0.23438
-0.00012232	0.27482	-0.00012232	-0.2245
-0.00012192	0.27076	-0.00012192	-0.21517
-0.00012152	0.27292	-0.00012152	-0.20502
-0.00012112	0.27373	-0.00012112	-0.19816
-0.00012072	0.274	-0.00012072	-0.18692
-0.00012032	0.27427	-0.00012032	-0.1743
-0.00011992	0.27238	-0.00011992	-0.16277
-0.00011952	0.27184	-0.00011952	-0.1518
-0.00011912	0.27211	-0.00011912	-0.14165
-0.00011872	0.27103	-0.00011872	-0.13067
-0.00011832	0.27265	-0.00011832	-0.11997
-0.00011792	0.27184	-0.00011792	-0.1079
-0.00011752	0.2713	-0.00011752	-0.09611
-0.00011712	0.27346	-0.00011712	-0.08376
-0.00011672	0.27346	-0.00011672	-0.07169
-0.00011632	0.27211	-0.00011632	-0.05879
-0.00011592	0.27157	-0.00011592	-0.04754
-0.00011552	0.27184	-0.00011552	-0.0352
-0.00011512	0.27265	-0.00011512	-0.02258
-0.00011472	0.27292	-0.00011472	-0.00831
-0.00011432	0.274	-0.00011432	0.00294
-0.00011392	0.27292	-0.00011392	0.01446
-0.00011352	0.27184	-0.00011352	0.0279
-0.00011312	0.27238	-0.00011312	0.03888
-0.00011272	0.27103	-0.00011272	0.05177
-0.00011232	0.27319	-0.00011232	0.06329
-0.00011192	0.27184	-0.00011192	0.07674
-0.00011152	0.27265	-0.00011152	0.09128
-0.00011112	0.27157	-0.00011112	0.10253
-0.00011072	0.27103	-0.00011072	0.11487
-0.00011032	0.27238	-0.00011032	0.12639
-0.00010992	0.27184	-0.00010992	0.13874
-0.00010952	0.27211	-0.00010952	0.15109
-0.00010912	0.27211	-0.00010912	0.16288
-0.00010872	0.27211	-0.00010872	0.17441
-0.00010832	0.27157	-0.00010832	0.18538
-0.00010792	0.2713	-0.00010792	0.19635
-0.00010752	0.27103	-0.00010752	0.20705
-0.00010712	0.27049	-0.00010712	0.21775
-0.00010672	0.27346	-0.00010672	0.229
-0.00010632	0.27265	-0.00010632	0.23531
-0.00010592	0.27211	-0.00010592	0.24546
-0.00010552	0.27265	-0.00010552	0.25589
-0.00010512	0.27319	-0.00010512	0.26549
-0.00010472	0.27157	-0.00010472	0.27317
-0.00010432	0.27184	-0.00010432	0.27976
-0.00010392	0.27076	-0.00010392	0.28744
-0.00010352	0.27265	-0.00010352	0.2943
-0.00010312	0.27184	-0.00010312	0.29978
-0.00010272	0.27184	-0.00010272	0.30692
-0.00010232	0.27319	-0.00010232	0.31268
-0.00010192	0.27211	-0.00010192	0.31844
-0.00010152	0.27319	-0.00010152	0.32393
-0.00010112	0.2713	-0.00010112	0.32941
-0.00010072	0.27211	-0.00010072	0.33298
-0.00010032	0.27103	-0.00010032	0.33792
-9.992E-5	0.2713	-9.992E-5	0.34368
-9.952E-5	0.27103	-9.952E-5	0.34615
-9.912E-5	0.27238	-9.912E-5	0.34999
-9.872E-5	0.27103	-9.872E-5	0.35712
-9.832E-5	0.27319	-9.832E-5	0.36096
-9.792E-5	0.27427	-9.792E-5	0.36398
-9.752E-5	0.27319	-9.752E-5	0.36782
-9.712E-5	0.27049	-9.712E-5	0.37166
-9.672E-5	0.27157	-9.672E-5	0.37797
-9.632E-5	0.27346	-9.632E-5	0.38209
-9.592E-5	0.27292	-9.592E-5	0.38456
-9.552E-5	0.27157	-9.552E-5	0.38785
-9.512E-5	0.27076	-9.512E-5	0.39169
-9.472E-5	0.27157	-9.472E-5	0.39526
-9.432E-5	0.27238	-9.432E-5	0.39855
-9.392E-5	0.27265	-9.392E-5	0.40349
-9.352E-5	0.27238	-9.352E-5	0.40459
-9.312E-5	0.27076	-9.312E-5	0.4087
-9.272E-5	0.27292	-9.272E-5	0.41337
-9.232E-5	0.27292	-9.232E-5	0.41474
-9.192E-5	0.27319	-9.192E-5	0.4205
-9.152E-5	0.27021	-9.152E-5	0.42242
-9.112E-5	0.27238	-9.112E-5	0.42626
-9.072E-5	0.27238	-9.072E-5	0.43147
-9.032E-5	0.27211	-9.032E-5	0.43339
-8.992E-5	0.27455	-8.992E-5	0.43476
-8.952E-5	0.27292	-8.952E-5	0.43998
-8.912E-5	0.27157	-8.912E-5	0.44162
-8.872E-5	0.27238	-8.872E-5	0.44327
-8.832E-5	0.27211	-8.832E-5	0.44821
-8.792E-5	0.27021	-8.792E-5	0.45068
-8.752E-5	0.274	-8.752E-5	0.45315
-8.712E-5	0.27076	-8.712E-5	0.45562
-8.672E-5	0.27292	-8.672E-5	0.45781
-8.632E-5	0.27319	-8.632E-5	0.46165
-8.592E-5	0.27319	-8.592E-5	0.46412
-8.552E-5	0.27211	-8.552E-5	0.46769
-8.512E-5	0.27103	-8.512E-5	0.46961
-8.472E-5	0.27265	-8.472E-5	0.47372
-8.432E-5	0.27238	-8.432E-5	0.47537
-8.392E-5	0.27346	-8.392E-5	0.47756
-8.352E-5	0.27211	-8.352E-5	0.47921
-8.312E-5	0.27103	-8.312E-5	0.48113
-8.272E-5	0.27319	-8.272E-5	0.48744
-8.232E-5	0.27265	-8.232E-5	0.48744
-8.192E-5	0.27211	-8.192E-5	0.48964
-8.152E-5	0.27319	-8.152E-5	0.4932
-8.112E-5	0.27373	-8.112E-5	0.49677
-8.072E-5	0.27238	-8.072E-5	0.49814
-8.032E-5	0.27157	-8.032E-5	0.49841
-7.992E-5	0.27265	-7.992E-5	0.50116
-7.952E-5	0.27184	-7.952E-5	0.50445
-7.912E-5	0.274	-7.912E-5	0.50692
-7.872E-5	0.27265	-7.872E-5	0.50747
-7.832E-5	0.27157	-7.832E-5	0.51296
-7.792E-5	0.27157	-7.792E-5	0.51241
-7.752E-5	0.27211	-7.752E-5	0.5157
-7.712E-5	0.27319	-7.712E-5	0.51652
-7.672E-5	0.27265	-7.672E-5	0.51954
-7.632E-5	0.27184	-7.632E-5	0.51981
-7.592E-5	0.27157	-7.592E-5	0.52228
-7.552E-5	0.27211	-7.552E-5	0.52448
-7.512E-5	0.27211	-7.512E-5	0.5264
-7.472E-5	0.27292	-7.472E-5	0.52859
-7.432E-5	0.27346	-7.432E-5	0.53189
-7.392E-5	0.27346	-7.392E-5	0.53106
-7.352E-5	0.27238	-7.352E-5	0.5349
-7.312E-5	0.27238	-7.312E-5	0.53298
-7.272E-5	0.27319	-7.272E-5	0.53765
-7.232E-5	0.27427	-7.232E-5	0.53874
-7.192E-5	0.27292	-7.192E-5	0.53957
-7.152E-5	0.27265	-7.152E-5	0.54204
-7.112E-5	0.27157	-7.112E-5	0.54313
-7.072E-5	0.27238	-7.072E-5	0.54423
-7.032E-5	0.27319	-7.032E-5	0.54451
-6.992E-5	0.27211	-6.992E-5	0.54533
-6.952E-5	0.27509	-6.952E-5	0.55027
-6.912E-5	0.27103	-6.912E-5	0.55027
-6.872E-5	0.27265	-6.872E-5	0.55328
-6.832E-5	0.27211	-6.832E-5	0.55301
-6.792E-5	0.27184	-6.792E-5	0.55548
-6.752E-5	0.27346	-6.752E-5	0.5574
-6.712E-5	0.274	-6.712E-5	0.56042
-6.672E-5	0.27346	-6.672E-5	0.55877
-6.632E-5	0.27427	-6.632E-5	0.56179
-6.592E-5	0.27265	-6.592E-5	0.56371
-6.552E-5	0.27238	-6.552E-5	0.56453
-6.512E-5	0.27292	-6.512E-5	0.56728
-6.472E-5	0.27346	-6.472E-5	0.56645
-6.432E-5	0.27211	-6.432E-5	0.56673
-6.392E-5	0.27373	-6.392E-5	0.56892
-6.352E-5	0.27292	-6.352E-5	0.56728
-6.312E-5	0.27292	-6.312E-5	0.57222
-6.272E-5	0.27265	-6.272E-5	0.57359
-6.232E-5	0.274	-6.232E-5	0.57084
-6.192E-5	0.274	-6.192E-5	0.57414
-6.152E-5	0.27346	-6.152E-5	0.57414
-6.112E-5	0.27211	-6.112E-5	0.57606
-6.072E-5	0.274	-6.072E-5	0.57606
-6.032E-5	0.27346	-6.032E-5	0.5777
-5.992E-5	0.27373	-5.992E-5	0.57798
-5.952E-5	0.27455	-5.952E-5	0.57935
-5.912E-5	0.27319	-5.912E-5	0.58099
-5.872E-5	0.27292	-5.872E-5	0.57935
-5.832E-5	0.27373	-5.832E-5	0.57962
-5.792E-5	0.274	-5.792E-5	0.58127
-5.752E-5	0.27536	-5.752E-5	0.58127
-5.712E-5	0.27455	-5.712E-5	0.58237
-5.672E-5	0.27427	-5.672E-5	0.58319
-5.632E-5	0.27482	-5.632E-5	0.58291
-5.592E-5	0.27319	-5.592E-5	0.58401
-5.552E-5	0.27157	-5.552E-5	0.58566
-5.512E-5	0.27265	-5.512E-5	0.58401
-5.472E-5	0.274	-5.472E-5	0.58593
-5.432E-5	0.27373	-5.432E-5	0.58813
-5.392E-5	0.27373	-5.392E-5	0.58621
-5.352E-5	0.27427	-5.352E-5	0.58703
-5.312E-5	0.27346	-5.312E-5	0.5884
-5.272E-5	0.27427	-5.272E-5	0.58813
-5.232E-5	0.27482	-5.232E-5	0.58703
-5.192E-5	0.27346	-5.192E-5	0.58703
-5.152E-5	0.27346	-5.152E-5	0.58813
-5.112E-5	0.27482	-5.112E-5	0.58868
-5.072E-5	0.27319	-5.072E-5	0.59032
-5.032E-5	0.27265	-5.032E-5	0.5895
-4.992E-5	0.27427	-4.992E-5	0.5906
-4.952E-5	0.27482	-4.952E-5	0.58922
-4.912E-5	0.27427	-4.912E-5	0.58785
-4.872E-5	0.27617	-4.872E-5	0.5884
-4.832E-5	0.27427	-4.832E-5	0.58785
-4.792E-5	0.27265	-4.792E-5	0.59169
-4.752E-5	0.27509	-4.752E-5	0.5884
-4.712E-5	0.27238	-4.712E-5	0.58895
-4.672E-5	0.27265	-4.672E-5	0.58895
-4.632E-5	0.27373	-4.632E-5	0.58977
-4.592E-5	0.27455	-4.592E-5	0.5873
-4.552E-5	0.27373	-4.552E-5	0.58703
-4.512E-5	0.274	-4.512E-5	0.58813
-4.472E-5	0.27617	-4.472E-5	0.58895
-4.432E-5	0.27455	-4.432E-5	0.58621
-4.392E-5	0.2759	-4.392E-5	0.58868
-4.352E-5	0.27482	-4.352E-5	0.5873
-4.312E-5	0.27427	-4.312E-5	0.58621
-4.272E-5	0.27536	-4.272E-5	0.58922
-4.232E-5	0.27427	-4.232E-5	0.58621
-4.192E-5	0.27373	-4.192E-5	0.5895
-4.152E-5	0.27482	-4.152E-5	0.58621
-4.112E-5	0.27536	-4.112E-5	0.58511
-4.072E-5	0.27455	-4.072E-5	0.5873
-4.032E-5	0.27509	-4.032E-5	0.58538
-3.992E-5	0.27482	-3.992E-5	0.58456
-3.952E-5	0.274	-3.952E-5	0.58291
-3.912E-5	0.27563	-3.912E-5	0.58346
-3.872E-5	0.27644	-3.872E-5	0.58264
-3.832E-5	0.27427	-3.832E-5	0.58264
-3.792E-5	0.27455	-3.792E-5	0.58237
-3.752E-5	0.274	-3.752E-5	0.57935
-3.712E-5	0.27455	-3.712E-5	0.57853
-3.672E-5	0.27536	-3.672E-5	0.57825
-3.632E-5	0.27455	-3.632E-5	0.57907
-3.592E-5	0.274	-3.592E-5	0.57825
-3.552E-5	0.27482	-3.552E-5	0.57633
-3.512E-5	0.27536	-3.512E-5	0.57414
-3.472E-5	0.27427	-3.472E-5	0.57496
-3.432E-5	0.27563	-3.432E-5	0.57633
-3.392E-5	0.27509	-3.392E-5	0.57222
-3.352E-5	0.27455	-3.352E-5	0.57139
-3.312E-5	0.27536	-3.312E-5	0.57084
-3.272E-5	0.2759	-3.272E-5	0.57112
-3.232E-5	0.27509	-3.232E-5	0.56892
-3.192E-5	0.27563	-3.192E-5	0.57112
-3.152E-5	0.274	-3.152E-5	0.56755
-3.112E-5	0.27536	-3.112E-5	0.567
-3.072E-5	0.27536	-3.072E-5	0.56344
-3.032E-5	0.27617	-3.032E-5	0.56453
-2.992E-5	0.27509	-2.992E-5	0.56344
-2.952E-5	0.27725	-2.952E-5	0.56069
-2.912E-5	0.27509	-2.912E-5	0.55959
-2.872E-5	0.27563	-2.872E-5	0.55959
-2.832E-5	0.27455	-2.832E-5	0.5574
-2.792E-5	0.2759	-2.792E-5	0.55603
-2.752E-5	0.27509	-2.752E-5	0.55603
-2.712E-5	0.2759	-2.712E-5	0.55383
-2.672E-5	0.27563	-2.672E-5	0.55301
-2.632E-5	0.27509	-2.632E-5	0.55109
-2.592E-5	0.27563	-2.592E-5	0.5489
-2.552E-5	0.27509	-2.552E-5	0.54862
-2.512E-5	0.2759	-2.512E-5	0.54752
-2.472E-5	0.27563	-2.472E-5	0.54643
-2.432E-5	0.27427	-2.432E-5	0.54396
-2.392E-5	0.27536	-2.392E-5	0.54451
-2.352E-5	0.27536	-2.352E-5	0.53984
-2.312E-5	0.27536	-2.312E-5	0.54039
-2.272E-5	0.27563	-2.272E-5	0.53847
-2.232E-5	0.27373	-2.232E-5	0.53518
-2.192E-5	0.27509	-2.192E-5	0.53518
-2.152E-5	0.27617	-2.152E-5	0.53298
-2.112E-5	0.27536	-2.112E-5	0.53079
-2.072E-5	0.27644	-2.072E-5	0.52777
-2.032E-5	0.27563	-2.032E-5	0.5264
-1.992E-5	0.2759	-1.992E-5	0.52695
-1.952E-5	0.27509	-1.952E-5	0.5242
-1.912E-5	0.27833	-1.912E-5	0.52365
-1.872E-5	0.27617	-1.872E-5	0.52036
-1.832E-5	0.2759	-1.832E-5	0.51844
-1.792E-5	0.27563	-1.792E-5	0.51515
-1.752E-5	0.2759	-1.752E-5	0.5135
-1.712E-5	0.27617	-1.712E-5	0.51323
-1.672E-5	0.27752	-1.672E-5	0.51076
-1.632E-5	0.27671	-1.632E-5	0.50939
-1.592E-5	0.27509	-1.592E-5	0.50665
-1.552E-5	0.27644	-1.552E-5	0.50472
-1.512E-5	0.2759	-1.512E-5	0.50363
-1.472E-5	0.27752	-1.472E-5	0.50116
-1.432E-5	0.27617	-1.432E-5	0.49732
-1.392E-5	0.27752	-1.392E-5	0.49649
-1.352E-5	0.27725	-1.352E-5	0.49265
-1.312E-5	0.27698	-1.312E-5	0.49238
-1.272E-5	0.27536	-1.272E-5	0.48964
-1.232E-5	0.27509	-1.232E-5	0.48881
-1.192E-5	0.27536	-1.192E-5	0.48497
-1.152E-5	0.2759	-1.152E-5	0.48333
-1.112E-5	0.27563	-1.112E-5	0.47921
-1.072E-5	0.27698	-1.072E-5	0.47509
-1.032E-5	0.2759	-1.032E-5	0.47537
-9.92E-6	0.27563	-9.92E-6	0.474
-9.52E-6	0.27671	-9.52E-6	0.47016
-9.12E-6	0.27698	-9.12E-6	0.46796
-8.72E-6	0.27617	-8.72E-6	0.46686
-8.32E-6	0.27617	-8.32E-6	0.46193
-7.92E-6	0.27427	-7.92E-6	0.4611
-7.52E-6	0.27563	-7.52E-6	0.46055
-7.12E-6	0.27698	-7.12E-6	0.45315
-6.72E-6	0.27671	-6.72E-6	0.45342
-6.32E-6	0.27671	-6.32E-6	0.45205
-5.92E-6	0.27752	-5.92E-6	0.44629
-5.52E-6	0.27563	-5.52E-6	0.44409
-5.12E-6	0.27509	-5.12E-6	0.44492
-4.72E-6	0.2759	-4.72E-6	0.43998
-4.32E-6	0.27779	-4.32E-6	0.43861
-3.92E-6	0.2759	-3.92E-6	0.43476
-3.52E-6	0.27509	-3.52E-6	0.4312
-3.12E-6	0.27671	-3.12E-6	0.42763
-2.72E-6	0.27536	-2.72E-6	0.42681
-2.32E-6	0.27671	-2.32E-6	0.42187
-1.92E-6	0.27698	-1.92E-6	0.41858
-1.52E-6	0.27806	-1.52E-6	0.41693
-1.12E-6	0.27671	-1.12E-6	0.41364
-7.2E-7	0.27644	-7.2E-7	0.4098
-3.2E-7	0.27806	-3.2E-7	0.4076
8E-8	0.27671	8E-8	0.40568
4.8E-7	0.27536	4.8E-7	0.40321
8.8E-7	0.27888	8.8E-7	0.39882
1.28E-6	0.27455	1.28E-6	0.39745
1.68E-6	0.27509	1.68E-6	0.39471
2.08E-6	0.27698	2.08E-6	0.38895
2.48E-6	0.27644	2.48E-6	0.38593
2.88E-6	0.27617	2.88E-6	0.38456
3.28E-6	0.27644	3.28E-6	0.3788
3.68E-6	0.27725	3.68E-6	0.3766
4.08E-6	0.27725	4.08E-6	0.37276
4.48E-6	0.27698	4.48E-6	0.36782
4.88E-6	0.27617	4.88E-6	0.36618
5.28E-6	0.27671	5.28E-6	0.36151
5.68E-6	0.27752	5.68E-6	0.35959
6.08E-6	0.2759	6.08E-6	0.3574
6.48E-6	0.2759	6.48E-6	0.35219
6.88E-6	0.27752	6.88E-6	0.34697
7.28E-6	0.27698	7.28E-6	0.34368
7.68E-6	0.27698	7.68E-6	0.34039
8.08E-6	0.27617	8.08E-6	0.3349
8.48E-6	0.27725	8.48E-6	0.33243
8.88E-6	0.27617	8.88E-6	0.32914
9.28E-6	0.27725	9.28E-6	0.3253
9.68E-6	0.27536	9.68E-6	0.31899
1.008E-5	0.27617	1.008E-5	0.31734
1.048E-5	0.27752	1.048E-5	0.31186
1.088E-5	0.27725	1.088E-5	0.30884
1.128E-5	0.27617	1.128E-5	0.30198
1.168E-5	0.27698	1.168E-5	0.29951
1.208E-5	0.27725	1.208E-5	0.29457
1.248E-5	0.27779	1.248E-5	0.29073
1.288E-5	0.27698	1.288E-5	0.28497
1.328E-5	0.27509	1.328E-5	0.27976
1.368E-5	0.27617	1.368E-5	0.27729
1.408E-5	0.27563	1.408E-5	0.27043
1.448E-5	0.27671	1.448E-5	0.26686
1.488E-5	0.27725	1.488E-5	0.26357
1.528E-5	0.27644	1.528E-5	0.25973
1.568E-5	0.27644	1.568E-5	0.25397
1.608E-5	0.27644	1.608E-5	0.25177
1.648E-5	0.27509	1.648E-5	0.24711
1.688E-5	0.27644	1.688E-5	0.24244
1.728E-5	0.27752	1.728E-5	0.24025
1.768E-5	0.27752	1.768E-5	0.23668
1.808E-5	0.27671	1.808E-5	0.23174
1.848E-5	0.27563	1.848E-5	0.22736
1.888E-5	0.27536	1.888E-5	0.22461
1.928E-5	0.27563	1.928E-5	0.22214
1.968E-5	0.27671	1.968E-5	0.21858
2.008E-5	0.27563	2.008E-5	0.21528
2.048E-5	0.2759	2.048E-5	0.21364
2.088E-5	0.27644	2.088E-5	0.21227
2.128E-5	0.27536	2.128E-5	0.20788
2.168E-5	0.27725	2.168E-5	0.20568
2.208E-5	0.27563	2.208E-5	0.20458
2.248E-5	0.27455	2.248E-5	0.20294
2.288E-5	0.2759	2.288E-5	0.19992
2.328E-5	0.27725	2.328E-5	0.20019
2.368E-5	0.2759	2.368E-5	0.19827
2.408E-5	0.27671	2.408E-5	0.198
2.448E-5	0.27617	2.448E-5	0.19718
2.488E-5	0.27698	2.488E-5	0.1969
2.528E-5	0.27671	2.528E-5	0.19443
2.568E-5	0.27509	2.568E-5	0.19416
2.608E-5	0.27698	2.608E-5	0.19388
2.648E-5	0.27752	2.648E-5	0.19306
2.688E-5	0.2759	2.688E-5	0.19169
2.728E-5	0.27644	2.728E-5	0.19251
2.768E-5	0.27509	2.768E-5	0.19196
2.808E-5	0.27536	2.808E-5	0.19142
2.848E-5	0.27563	2.848E-5	0.19224
2.888E-5	0.27536	2.888E-5	0.19114
2.928E-5	0.27563	2.928E-5	0.19169
2.968E-5	0.27536	2.968E-5	0.19004
3.008E-5	0.27563	3.008E-5	0.19196
3.048E-5	0.2759	3.048E-5	0.19361
3.088E-5	0.27536	3.088E-5	0.19142
3.128E-5	0.27617	3.128E-5	0.19224
3.168E-5	0.27752	3.168E-5	0.19306
3.208E-5	0.27617	3.208E-5	0.19169
3.248E-5	0.27644	3.248E-5	0.19306
3.288E-5	0.27536	3.288E-5	0.19279
3.328E-5	0.2759	3.328E-5	0.19306
3.368E-5	0.2759	3.368E-5	0.19443
3.408E-5	0.27752	3.408E-5	0.19416
3.448E-5	0.27617	3.448E-5	0.19471
3.488E-5	0.27536	3.488E-5	0.19251
3.528E-5	0.27536	3.528E-5	0.19334
3.568E-5	0.2759	3.568E-5	0.19361
3.608E-5	0.27671	3.608E-5	0.19416
3.648E-5	0.27563	3.648E-5	0.19526
3.688E-5	0.27536	3.688E-5	0.19663
3.728E-5	0.2759	3.728E-5	0.19635
3.768E-5	0.27671	3.768E-5	0.19718
3.808E-5	0.27725	3.808E-5	0.19635
3.848E-5	0.27563	3.848E-5	0.19663
3.888E-5	0.27779	3.888E-5	0.19635
3.928E-5	0.27536	3.928E-5	0.19526
3.968E-5	0.27509	3.968E-5	0.19663
4.008E-5	0.27779	4.008E-5	0.19827
4.048E-5	0.27671	4.048E-5	0.19745
4.088E-5	0.27671	4.088E-5	0.19773
4.128E-5	0.27427	4.128E-5	0.19937
4.168E-5	0.27536	4.168E-5	0.198
4.208E-5	0.27617	4.208E-5	0.198
4.248E-5	0.27644	4.248E-5	0.20047
4.288E-5	0.27617	4.288E-5	0.19965
4.328E-5	0.27725	4.328E-5	0.19965
4.368E-5	0.27563	4.368E-5	0.20211
4.408E-5	0.274	4.408E-5	0.20184
4.448E-5	0.27698	4.448E-5	0.20376
4.488E-5	0.27725	4.488E-5	0.20431
4.528E-5	0.27455	4.528E-5	0.20678
4.568E-5	0.27509	4.568E-5	0.20266
4.608E-5	0.27671	4.608E-5	0.20623
4.648E-5	0.27617	4.648E-5	0.20596
4.688E-5	0.27455	4.688E-5	0.2087
4.728E-5	0.27617	4.728E-5	0.21007
4.768E-5	0.27644	4.768E-5	0.21199
4.808E-5	0.2759	4.808E-5	0.21254
4.848E-5	0.2759	4.848E-5	0.21528
4.888E-5	0.27725	4.888E-5	0.21583
4.928E-5	0.27671	4.928E-5	0.22159
4.968E-5	0.27563	4.968E-5	0.22379
5.008E-5	0.27482	5.008E-5	0.2279
5.048E-5	0.27427	5.048E-5	0.23147
5.088E-5	0.27427	5.088E-5	0.23586
5.128E-5	0.2759	5.128E-5	0.23998
5.168E-5	0.27536	5.168E-5	0.24409
5.208E-5	0.27455	5.208E-5	0.24875
5.248E-5	0.27536	5.248E-5	0.2526
5.288E-5	0.27509	5.288E-5	0.25753
5.328E-5	0.27482	5.328E-5	0.2633
5.368E-5	0.27455	5.368E-5	0.26768
5.408E-5	0.27509	5.408E-5	0.27235
5.448E-5	0.27671	5.448E-5	0.27537
5.488E-5	0.2759	5.488E-5	0.27921
5.528E-5	0.27563	5.528E-5	0.28305
5.568E-5	0.27482	5.568E-5	0.28552
5.608E-5	0.2759	5.608E-5	0.28991
5.648E-5	0.27617	5.648E-5	0.28991
5.688E-5	0.274	5.688E-5	0.291
5.728E-5	0.2759	5.728E-5	0.29622
5.768E-5	0.27509	5.768E-5	0.29951
5.808E-5	0.27617	5.808E-5	0.29896
5.848E-5	0.27617	5.848E-5	0.30198
5.888E-5	0.27752	5.888E-5	0.3039
5.928E-5	0.274	5.928E-5	0.30445
5.968E-5	0.27617	5.968E-5	0.30582
6.008E-5	0.2759	6.008E-5	0.30527
6.048E-5	0.27617	6.048E-5	0.30801
6.088E-5	0.27617	6.088E-5	0.30856
6.128E-5	0.27509	6.128E-5	0.30884
6.168E-5	0.27482	6.168E-5	0.31213
6.208E-5	0.27671	6.208E-5	0.31021
6.248E-5	0.27482	6.248E-5	0.31103
6.288E-5	0.2759	6.288E-5	0.31323
6.328E-5	0.27455	6.328E-5	0.31268
6.368E-5	0.27671	6.368E-5	0.31158
6.408E-5	0.27536	6.408E-5	0.31378
6.448E-5	0.27644	6.448E-5	0.31268
6.488E-5	0.27644	6.488E-5	0.3135
6.528E-5	0.27563	6.528E-5	0.31295
6.568E-5	0.27509	6.568E-5	0.31213
6.608E-5	0.27617	6.608E-5	0.31131
6.648E-5	0.27671	6.648E-5	0.31268
6.688E-5	0.27752	6.688E-5	0.31295
6.728E-5	0.27536	6.728E-5	0.31323
6.768E-5	0.2759	6.768E-5	0.31268
6.808E-5	0.27563	6.808E-5	0.3146
6.848E-5	0.27617	6.848E-5	0.31213
6.888E-5	0.27455	6.888E-5	0.3135
6.928E-5	0.27671	6.928E-5	0.3124
6.968E-5	0.27698	6.968E-5	0.3135
7.008E-5	0.27455	7.008E-5	0.31432
7.048E-5	0.27617	7.048E-5	0.3124
7.088E-5	0.27509	7.088E-5	0.31323
7.128E-5	0.27644	7.128E-5	0.31378
7.168E-5	0.27455	7.168E-5	0.31186
7.208E-5	0.27509	7.208E-5	0.31048
7.248E-5	0.27427	7.248E-5	0.31131
7.288E-5	0.27536	7.288E-5	0.31131
7.328E-5	0.27536	7.328E-5	0.31021
7.368E-5	0.2759	7.368E-5	0.30994
7.408E-5	0.27536	7.408E-5	0.31131
7.448E-5	0.2759	7.448E-5	0.31131
7.488E-5	0.27482	7.488E-5	0.30856
7.528E-5	0.27455	7.528E-5	0.30911
7.568E-5	0.27698	7.568E-5	0.30801
7.608E-5	0.27563	7.608E-5	0.30801
7.648E-5	0.27482	7.648E-5	0.30582
7.688E-5	0.27509	7.688E-5	0.30609
7.728E-5	0.27617	7.728E-5	0.30719
7.768E-5	0.27509	7.768E-5	0.30527
7.808E-5	0.27644	7.808E-5	0.3039
7.848E-5	0.27509	7.848E-5	0.30253
7.888E-5	0.2759	7.888E-5	0.30253
7.928E-5	0.27509	7.928E-5	0.30225
7.968E-5	0.27563	7.968E-5	0.30006
8.008E-5	0.27509	8.008E-5	0.29814
8.048E-5	0.27752	8.048E-5	0.29567
8.088E-5	0.27563	8.088E-5	0.29457
8.128E-5	0.27509	8.128E-5	0.29265
8.168E-5	0.27644	8.168E-5	0.2921
8.208E-5	0.2759	8.208E-5	0.28963
8.248E-5	0.27644	8.248E-5	0.28771
8.288E-5	0.27563	8.288E-5	0.28716
8.328E-5	0.27617	8.328E-5	0.28634
8.368E-5	0.2759	8.368E-5	0.28387
8.408E-5	0.27698	8.408E-5	0.2836
8.448E-5	0.27752	8.448E-5	0.28305
8.488E-5	0.27482	8.488E-5	0.28415
8.528E-5	0.27698	8.528E-5	0.28277
8.568E-5	0.27563	8.568E-5	0.28332
8.608E-5	0.27455	8.608E-5	0.28442
8.648E-5	0.2759	8.648E-5	0.28826
8.688E-5	0.2759	8.688E-5	0.28908
8.728E-5	0.27563	8.728E-5	0.29018
8.768E-5	0.2759	8.768E-5	0.29375
8.808E-5	0.27509	8.808E-5	0.29677
8.848E-5	0.2759	8.848E-5	0.29731
8.888E-5	0.27509	8.888E-5	0.30116
8.928E-5	0.27509	8.928E-5	0.30116
8.968E-5	0.27644	8.968E-5	0.30582
9.008E-5	0.27482	9.008E-5	0.30911
9.048E-5	0.27644	9.048E-5	0.31268
9.088E-5	0.27482	9.088E-5	0.31679
9.128E-5	0.27536	9.128E-5	0.31899
9.168E-5	0.27509	9.168E-5	0.32338
9.208E-5	0.27617	9.208E-5	0.32475
9.248E-5	0.27725	9.248E-5	0.32749
9.288E-5	0.2759	9.288E-5	0.33243
9.328E-5	0.27833	9.328E-5	0.33682
9.368E-5	0.27563	9.368E-5	0.33929
9.408E-5	0.2759	9.408E-5	0.34258
9.448E-5	0.2759	9.448E-5	0.3456
9.488E-5	0.27427	9.488E-5	0.34972
9.528E-5	0.27671	9.528E-5	0.35493
9.568E-5	0.27346	9.568E-5	0.3563
9.608E-5	0.2759	9.608E-5	0.35877
9.648E-5	0.27671	9.648E-5	0.36151
9.688E-5	0.27563	9.688E-5	0.36508
9.728E-5	0.27698	9.728E-5	0.36563
9.768E-5	0.27563	9.768E-5	0.37166
9.808E-5	0.27509	9.808E-5	0.37276
9.848E-5	0.2759	9.848E-5	0.37688
9.888E-5	0.27509	9.888E-5	0.38017
9.928E-5	0.27563	9.928E-5	0.38099
9.968E-5	0.27671	9.968E-5	0.3862
0.00010008	0.27671	0.00010008	0.39114
0.00010048	0.27482	0.00010048	0.39224
0.00010088	0.27536	0.00010088	0.39471
0.00010128	0.27671	0.00010128	0.39937
0.00010168	0.27617	0.00010168	0.40075
0.00010208	0.27725	0.00010208	0.40568
0.00010248	0.27698	0.00010248	0.40678
0.00010288	0.27644	0.00010288	0.41035
0.00010328	0.27509	0.00010328	0.41282
0.00010368	0.27563	0.00010368	0.41583
0.00010408	0.2759	0.00010408	0.41858
0.00010448	0.27455	0.00010448	0.4194
0.00010488	0.27671	0.00010488	0.42379
0.00010528	0.27752	0.00010528	0.42626
0.00010568	0.27698	0.00010568	0.42873
0.00010608	0.27563	0.00010608	0.43147
0.00010648	0.27509	0.00010648	0.43422
0.00010688	0.27509	0.00010688	0.43586
0.00010728	0.27482	0.00010728	0.43861
0.00010768	0.27617	0.00010768	0.44135
0.00010808	0.27644	0.00010808	0.44574
0.00010848	0.27617	0.00010848	0.44739
0.00010888	0.27563	0.00010888	0.45095
0.00010928	0.2759	0.00010928	0.45315
0.00010968	0.27617	0.00010968	0.45452
0.00011008	0.27563	0.00011008	0.45726
0.00011048	0.27455	0.00011048	0.45863
0.00011088	0.27698	0.00011088	0.46302
0.00011128	0.27455	0.00011128	0.46467
0.00011168	0.27671	0.00011168	0.46522
0.00011208	0.27563	0.00011208	0.46796
0.00011248	0.27752	0.00011248	0.46988
0.00011288	0.27671	0.00011288	0.47153
0.00011328	0.27617	0.00011328	0.47455
0.00011368	0.27644	0.00011368	0.47811
0.00011408	0.27644	0.00011408	0.47948
0.00011448	0.27698	0.00011448	0.48223
0.00011488	0.27536	0.00011488	0.48415
0.00011528	0.27698	0.00011528	0.48771
0.00011568	0.27752	0.00011568	0.48689
0.00011608	0.27752	0.00011608	0.48909
0.00011648	0.27563	0.00011648	0.4932
0.00011688	0.27509	0.00011688	0.49457
0.00011728	0.27617	0.00011728	0.49512
0.00011768	0.2759	0.00011768	0.49814
0.00011808	0.27536	0.00011808	0.49951
0.00011848	0.27779	0.00011848	0.5028
0.00011888	0.2759	0.00011888	0.50418
0.00011928	0.27725	0.00011928	0.50527
0.00011968	0.27671	0.00011968	0.50747
0.00012008	0.27725	0.00012008	0.51103
0.00012048	0.27671	0.00012048	0.51076
0.00012088	0.27644	0.00012088	0.51241
0.00012128	0.27455	0.00012128	0.51488
0.00012168	0.27671	0.00012168	0.51625
0.00012208	0.27536	0.00012208	0.51789
0.00012248	0.27644	0.00012248	0.52201
0.00012288	0.27644	0.00012288	0.51981
0.00012328	0.27617	0.00012328	0.52311
0.00012368	0.27752	0.00012368	0.52585
0.00012408	0.27671	0.00012408	0.52722
0.00012448	0.27617	0.00012448	0.5275
0.00012488	0.27698	0.00012488	0.52942
0.00012528	0.27671	0.00012528	0.52996
0.00012568	0.27536	0.00012568	0.53189
0.00012608	0.27617	0.00012608	0.53518
0.00012648	0.27644	0.00012648	0.53573
0.00012688	0.27779	0.00012688	0.53737
0.00012728	0.27563	0.00012728	0.5382
0.00012768	0.27833	0.00012768	0.53957
0.00012808	0.27563	0.00012808	0.54259
0.00012848	0.27806	0.00012848	0.54588
0.00012888	0.27671	0.00012888	0.54505
0.00012928	0.27617	0.00012928	0.54505
0.00012968	0.27752	0.00012968	0.5478
0.00013008	0.27617	0.00013008	0.5489
0.00013048	0.27725	0.00013048	0.54972
0.00013088	0.27725	0.00013088	0.55136
0.00013128	0.27698	0.00013128	0.54999
0.00013168	0.27644	0.00013168	0.55301
0.00013208	0.27671	0.00013208	0.55466
0.00013248	0.27644	0.00013248	0.55521
0.00013288	0.27536	0.00013288	0.55466
0.00013328	0.27698	0.00013328	0.55822
0.00013368	0.27725	0.00013368	0.55822
0.00013408	0.27644	0.00013408	0.55932
0.00013448	0.27996	0.00013448	0.56069
0.00013488	0.27752	0.00013488	0.56179
0.00013528	0.27725	0.00013528	0.56261
0.00013568	0.27888	0.00013568	0.56316
0.00013608	0.27617	0.00013608	0.56344
0.00013648	0.27752	0.00013648	0.56234
0.00013688	0.27644	0.00013688	0.56426
0.00013728	0.27915	0.00013728	0.56618
0.00013768	0.27671	0.00013768	0.56618
0.00013808	0.27725	0.00013808	0.56728
0.00013848	0.27617	0.00013848	0.56728
0.00013888	0.27779	0.00013888	0.57002
0.00013928	0.27617	0.00013928	0.56865
0.00013968	0.27671	0.00013968	0.5692
0.00014008	0.27644	0.00014008	0.57167
0.00014048	0.27725	0.00014048	0.57194
0.00014088	0.2786	0.00014088	0.57386
0.00014128	0.27833	0.00014128	0.57468
0.00014168	0.27942	0.00014168	0.57276
0.00014208	0.27833	0.00014208	0.57441
0.00014248	0.2786	0.00014248	0.57633
0.00014288	0.27806	0.00014288	0.57331
0.00014328	0.27779	0.00014328	0.57496
0.00014368	0.2759	0.00014368	0.57606
0.00014408	0.27725	0.00014408	0.57578
0.00014448	0.27725	0.00014448	0.57688
0.00014488	0.2786	0.00014488	0.57523
0.00014528	0.27833	0.00014528	0.57551
0.00014568	0.27617	0.00014568	0.57633
0.00014608	0.27888	0.00014608	0.57606
0.00014648	0.27779	0.00014648	0.57715
0.00014688	0.27644	0.00014688	0.57551
0.00014728	0.27779	0.00014728	0.57798
0.00014768	0.27752	0.00014768	0.57523
0.00014808	0.27725	0.00014808	0.57743
0.00014848	0.27698	0.00014848	0.57743
0.00014888	0.27942	0.00014888	0.57907
0.00014928	0.27725	0.00014928	0.57715
0.00014968	0.27833	0.00014968	0.5766
0.00015008	0.2786	0.00015008	0.5777
0.00015048	0.27833	0.00015048	0.57688
0.00015088	0.27833	0.00015088	0.57688
0.00015128	0.27833	0.00015128	0.57606
0.00015168	0.27779	0.00015168	0.57633
0.00015208	0.27671	0.00015208	0.57688
0.00015248	0.27725	0.00015248	0.57633
0.00015288	0.27915	0.00015288	0.57743
0.00015328	0.27833	0.00015328	0.57331
0.00015368	0.27779	0.00015368	0.57496
0.00015408	0.27833	0.00015408	0.57468
0.00015448	0.27942	0.00015448	0.57551
0.00015488	0.27969	0.00015488	0.57249
0.00015528	0.27725	0.00015528	0.57194
0.00015568	0.27833	0.00015568	0.57359
0.00015608	0.27888	0.00015608	0.57167
0.00015648	0.27752	0.00015648	0.57359
0.00015688	0.27779	0.00015688	0.57139
0.00015728	0.27942	0.00015728	0.57194
0.00015768	0.27942	0.00015768	0.56837
0.00015808	0.27752	0.00015808	0.5681
0.00015848	0.27888	0.00015848	0.57002
0.00015888	0.27725	0.00015888	0.56673
0.00015928	0.27779	0.00015928	0.56728
0.00015968	0.27942	0.00015968	0.56536
0.00016008	0.2786	0.00016008	0.56453
0.00016048	0.2759	0.00016048	0.56206
0.00016088	0.2786	0.00016088	0.56398
0.00016128	0.2786	0.00016128	0.56179
0.00016168	0.27779	0.00016168	0.56206
0.00016208	0.27942	0.00016208	0.55959
0.00016248	0.27915	0.00016248	0.56152
0.00016288	0.27915	0.00016288	0.56042
0.00016328	0.27915	0.00016328	0.55767
0.00016368	0.27942	0.00016368	0.55932
0.00016408	0.2805	0.00016408	0.5563
0.00016448	0.27888	0.00016448	0.55466
0.00016488	0.27806	0.00016488	0.55383
0.00016528	0.27888	0.00016528	0.55328
0.00016568	0.27833	0.00016568	0.55301
0.00016608	0.27942	0.00016608	0.55109
0.00016648	0.2786	0.00016648	0.5489
0.00016688	0.2786	0.00016688	0.54944
0.00016728	0.27969	0.00016728	0.54835
0.00016768	0.27942	0.00016768	0.54697
0.00016808	0.27833	0.00016808	0.54478
0.00016848	0.27888	0.00016848	0.54423
0.00016888	0.27915	0.00016888	0.54176
0.00016928	0.27915	0.00016928	0.54313
0.00016968	0.27942	0.00016968	0.5382
0.00017008	0.27888	0.00017008	0.53902
0.00017048	0.27725	0.00017048	0.53627
0.00017088	0.27969	0.00017088	0.53381
0.00017128	0.27969	0.00017128	0.53189
0.00017168	0.27969	0.00017168	0.53079
0.00017208	0.2786	0.00017208	0.52969
0.00017248	0.27833	0.00017248	0.52859
0.00017288	0.28023	0.00017288	0.52695
0.00017328	0.27996	0.00017328	0.52311
0.00017368	0.27996	0.00017368	0.52448
0.00017408	0.28023	0.00017408	0.52064
0.00017448	0.27942	0.00017448	0.51844
0.00017488	0.28077	0.00017488	0.51899
0.00017528	0.27833	0.00017528	0.51625
0.00017568	0.2805	0.00017568	0.51597
0.00017608	0.27969	0.00017608	0.51076
0.00017648	0.27996	0.00017648	0.51021
0.00017688	0.28104	0.00017688	0.50802
0.00017728	0.27915	0.00017728	0.50774
0.00017768	0.27969	0.00017768	0.50472
0.00017808	0.27996	0.00017808	0.50088
0.00017848	0.27996	0.00017848	0.50061
0.00017888	0.2786	0.00017888	0.49759
0.00017928	0.27915	0.00017928	0.49595
0.00017968	0.2805	0.00017968	0.49265
0.00018008	0.28104	0.00018008	0.49156
0.00018048	0.27915	0.00018048	0.48689
0.00018088	0.27969	0.00018088	0.48744
0.00018128	0.27915	0.00018128	0.48634
0.00018168	0.27969	0.00018168	0.48031
0.00018208	0.2805	0.00018208	0.48058
0.00018248	0.28077	0.00018248	0.47729
0.00018288	0.2805	0.00018288	0.474
0.00018328	0.27888	0.00018328	0.47043
0.00018368	0.28104	0.00018368	0.47125
0.00018408	0.27969	0.00018408	0.46769
0.00018448	0.27888	0.00018448	0.46659
0.00018488	0.28104	0.00018488	0.46302
0.00018528	0.2786	0.00018528	0.46001
0.00018568	0.27969	0.00018568	0.45754
0.00018608	0.27942	0.00018608	0.45479
0.00018648	0.27969	0.00018648	0.45095
0.00018688	0.28023	0.00018688	0.44903
0.00018728	0.27806	0.00018728	0.44711
0.00018768	0.2805	0.00018768	0.44327
0.00018808	0.27942	0.00018808	0.44162
0.00018848	0.28077	0.00018848	0.43778
0.00018888	0.27942	0.00018888	0.43394
0.00018928	0.27969	0.00018928	0.43202
0.00018968	0.27996	0.00018968	0.42818
0.00019008	0.27942	0.00019008	0.42461
0.00019048	0.27942	0.00019048	0.42132
0.00019088	0.28077	0.00019088	0.41968
0.00019128	0.2786	0.00019128	0.41803
0.00019168	0.28077	0.00019168	0.41419
0.00019208	0.28185	0.00019208	0.40733
0.00019248	0.28023	0.00019248	0.4076
0.00019288	0.28131	0.00019288	0.40294
0.00019328	0.28104	0.00019328	0.39965
0.00019368	0.28212	0.00019368	0.39553
0.00019408	0.28023	0.00019408	0.39059
0.00019448	0.28104	0.00019448	0.3895
0.00019488	0.28131	0.00019488	0.38511
0.00019528	0.27969	0.00019528	0.38099
0.00019568	0.28104	0.00019568	0.37797
0.00019608	0.2805	0.00019608	0.37139
0.00019648	0.27942	0.00019648	0.37084
0.00019688	0.27942	0.00019688	0.36563
0.00019728	0.28077	0.00019728	0.36151
0.00019768	0.28023	0.00019768	0.35685
0.00019808	0.27969	0.00019808	0.35438
0.00019848	0.27942	0.00019848	0.35081
0.00019888	0.28104	0.00019888	0.34423
0.00019928	0.27942	0.00019928	0.34121
0.00019968	0.28185	0.00019968	0.336
0.00020008	0.28023	0.00020008	0.33133
0.00020048	0.28131	0.00020048	0.32722
0.00020088	0.27969	0.00020088	0.3242
0.00020128	0.2786	0.00020128	0.31871
0.00020168	0.27969	0.00020168	0.31268
0.00020208	0.28077	0.00020208	0.30939
0.00020248	0.27942	0.00020248	0.3028
0.00020288	0.27888	0.00020288	0.29978
0.00020328	0.28077	0.00020328	0.2943
0.00020368	0.28023	0.00020368	0.28716
0.00020408	0.27969	0.00020408	0.28497
0.00020448	0.27969	0.00020448	0.27811
0.00020488	0.28131	0.00020488	0.27317
0.00020528	0.28131	0.00020528	0.26686
0.00020568	0.28131	0.00020568	0.2611
0.00020608	0.28104	0.00020608	0.25781
0.00020648	0.27942	0.00020648	0.2493
0.00020688	0.27969	0.00020688	0.24272
0.00020728	0.27996	0.00020728	0.23888
0.00020768	0.28023	0.00020768	0.23147
0.00020808	0.2786	0.00020808	0.22543
0.00020848	0.2805	0.00020848	0.2194
0.00020888	0.28023	0.00020888	0.2098
0.00020928	0.2805	0.00020928	0.20349
0.00020968	0.2805	0.00020968	0.19773
0.00021008	0.2805	0.00021008	0.19004
0.00021048	0.28023	0.00021048	0.18318
0.00021088	0.27942	0.00021088	0.1755
0.00021128	0.2786	0.00021128	0.16755
0.00021168	0.28077	0.00021168	0.16041
0.00021208	0.27915	0.00021208	0.15465
0.00021248	0.28023	0.00021248	0.14642
0.00021288	0.27888	0.00021288	0.13709
0.00021328	0.27806	0.00021328	0.13133
0.00021368	0.27942	0.00021368	0.12146
0.00021408	0.27888	0.00021408	0.11432
0.00021448	0.27996	0.00021448	0.10609
0.00021488	0.27942	0.00021488	0.09759
0.00021528	0.28023	0.00021528	0.08853
0.00021568	0.28023	0.00021568	0.08003
0.00021608	0.27915	0.00021608	0.0707
0.00021648	0.27888	0.00021648	0.06192
0.00021688	0.27915	0.00021688	0.0515
0.00021728	0.27888	0.00021728	0.04244
0.00021768	0.27779	0.00021768	0.03257
0.00021808	0.27942	0.00021808	0.02598
0.00021848	0.27915	0.00021848	0.01556
0.00021888	0.27888	0.00021888	0.00595
0.00021928	0.27888	0.00021928	-0.00228
0.00021968	0.27915	0.00021968	-0.01298
0.00022008	0.27915	0.00022008	-0.02121
0.00022048	0.27996	0.00022048	-0.02779
0.00022088	0.27915	0.00022088	-0.03767
0.00022128	0.28077	0.00022128	-0.04809
0.00022168	0.2805	0.00022168	-0.0544
0.00022208	0.27915	0.00022208	-0.06483
0.00022248	0.27915	0.00022248	-0.07306
0.00022288	0.27779	0.00022288	-0.07964
0.00022328	0.27806	0.00022328	-0.08678
0.00022368	0.27915	0.00022368	-0.09583
0.00022408	0.27806	0.00022408	-0.10351
0.00022448	0.27833	0.00022448	-0.10955
0.00022488	0.27969	0.00022488	-0.11888
0.00022528	0.27806	0.00022528	-0.12327
0.00022568	0.27806	0.00022568	-0.13067
0.00022608	0.27888	0.00022608	-0.13397
0.00022648	0.2786	0.00022648	-0.1422
0.00022688	0.27752	0.00022688	-0.14576
0.00022728	0.27942	0.00022728	-0.15098
0.00022768	0.27942	0.00022768	-0.15427
0.00022808	0.27942	0.00022808	-0.15948
0.00022848	0.27942	0.00022848	-0.16305
0.00022888	0.27888	0.00022888	-0.16716
0.00022928	0.27942	0.00022928	-0.17375
0.00022968	0.27833	0.00022968	-0.17594
0.00023008	0.27806	0.00023008	-0.18061
0.00023048	0.27806	0.00023048	-0.18362
0.00023088	0.27942	0.00023088	-0.18664
0.00023128	0.2805	0.00023128	-0.18609
0.00023168	0.27752	0.00023168	-0.18829
0.00023208	0.27725	0.00023208	-0.19542
0.00023248	0.27969	0.00023248	-0.19515
0.00023288	0.27915	0.00023288	-0.19789
0.00023328	0.27942	0.00023328	-0.20036
0.00023368	0.27752	0.00023368	-0.2031
0.00023408	0.2786	0.00023408	-0.20667
0.00023448	0.2786	0.00023448	-0.20749
0.00023488	0.27833	0.00023488	-0.20831
0.00023528	0.27752	0.00023528	-0.20941
0.00023568	0.27752	0.00023568	-0.21133
0.00023608	0.27644	0.00023608	-0.21353
0.00023648	0.27888	0.00023648	-0.21325
0.00023688	0.27617	0.00023688	-0.21655
0.00023728	0.27833	0.00023728	-0.21764
0.00023768	0.27752	0.00023768	-0.21709
0.00023808	0.27779	0.00023808	-0.22148
0.00023848	0.27644	0.00023848	-0.22313
0.00023888	0.27779	0.00023888	-0.22039
0.00023928	0.27833	0.00023928	-0.22532
0.00023968	0.2786	0.00023968	-0.22505
0.00024008	0.2786	0.00024008	-0.22587
0.00024048	0.27833	0.00024048	-0.22642
0.00024088	0.27752	0.00024088	-0.22752
0.00024128	0.27617	0.00024128	-0.23081
0.00024168	0.27644	0.00024168	-0.22889
0.00024208	0.27644	0.00024208	-0.22944
0.00024248	0.2786	0.00024248	-0.23191
0.00024288	0.27806	0.00024288	-0.23273
0.00024328	0.27644	0.00024328	-0.23301
0.00024368	0.27617	0.00024368	-0.23465
0.00024408	0.27671	0.00024408	-0.23493
0.00024448	0.27752	0.00024448	-0.23657
0.00024488	0.27644	0.00024488	-0.23794
0.00024528	0.27698	0.00024528	-0.23932
0.00024568	0.27725	0.00024568	-0.24041
0.00024608	0.2759	0.00024608	-0.24096
0.00024648	0.27671	0.00024648	-0.24316
0.00024688	0.27698	0.00024688	-0.24755
0.00024728	0.27644	0.00024728	-0.24974
0.00024768	0.2759	0.00024768	-0.25057
0.00024808	0.27725	0.00024808	-0.2555
0.00024848	0.27752	0.00024848	-0.25688
0.00024888	0.2759	0.00024888	-0.26181
0.00024928	0.27482	0.00024928	-0.26648
0.00024968	0.27482	0.00024968	-0.2684
0.00025008	0.27725	0.00025008	-0.27361
0.00025048	0.27617	0.00025048	-0.27827
0.00025088	0.27698	0.00025088	-0.28212
0.00025128	0.27482	0.00025128	-0.28596
0.00025168	0.27536	0.00025168	-0.28815
0.00025208	0.27455	0.00025208	-0.29391
0.00025248	0.27509	0.00025248	-0.29666
0.00025288	0.27536	0.00025288	-0.30077
0.00025328	0.27509	0.00025328	-0.30297
0.00025368	0.27509	0.00025368	-0.30461
0.00025408	0.2759	0.00025408	-0.309
0.00025448	0.2759	0.00025448	-0.3112
0.00025488	0.27644	0.00025488	-0.31229
0.00025528	0.27509	0.00025528	-0.31559
0.00025568	0.27563	0.00025568	-0.31421
0.00025608	0.27563	0.00025608	-0.31614
0.00025648	0.27671	0.00025648	-0.31531
0.00025688	0.27671	0.00025688	-0.31778
0.00025728	0.27482	0.00025728	-0.31998
0.00025768	0.27427	0.00025768	-0.32135
0.00025808	0.27482	0.00025808	-0.32107
0.00025848	0.27427	0.00025848	-0.32299
0.00025888	0.274	0.00025888	-0.32382
0.00025928	0.27482	0.00025928	-0.32437
0.00025968	0.27427	0.00025968	-0.32437
0.00026008	0.27536	0.00026008	-0.32491
0.00026048	0.27427	0.00026048	-0.32711
0.00026088	0.27455	0.00026088	-0.32738
0.00026128	0.27319	0.00026128	-0.32629
0.00026168	0.27373	0.00026168	-0.32491
0.00026208	0.27455	0.00026208	-0.32683
0.00026248	0.27509	0.00026248	-0.32903
0.00026288	0.27536	0.00026288	-0.3293
0.00026328	0.27536	0.00026328	-0.32766
0.00026368	0.27482	0.00026368	-0.3293
0.00026408	0.274	0.00026408	-0.32766
0.00026448	0.27373	0.00026448	-0.32793
0.00026488	0.274	0.00026488	-0.32738
0.00026528	0.27563	0.00026528	-0.32848
0.00026568	0.27427	0.00026568	-0.32766
0.00026608	0.27346	0.00026608	-0.32711
0.00026648	0.27346	0.00026648	-0.32903
0.00026688	0.27482	0.00026688	-0.32738
0.00026728	0.27455	0.00026728	-0.32766
0.00026768	0.27319	0.00026768	-0.32711
0.00026808	0.27509	0.00026808	-0.32519
0.00026848	0.27373	0.00026848	-0.32656
0.00026888	0.27265	0.00026888	-0.32491
0.00026928	0.27427	0.00026928	-0.32354
0.00026968	0.27373	0.00026968	-0.32327
0.00027008	0.27455	0.00027008	-0.32382
0.00027048	0.27265	0.00027048	-0.32327
0.00027088	0.27373	0.00027088	-0.3197
0.00027128	0.27238	0.00027128	-0.31915
0.00027168	0.27319	0.00027168	-0.31778
0.00027208	0.27319	0.00027208	-0.31367
0.00027248	0.27319	0.00027248	-0.31175
0.00027288	0.27346	0.00027288	-0.30653
0.00027328	0.27346	0.00027328	-0.30132
0.00027368	0.27319	0.00027368	-0.2994
0.00027408	0.27373	0.00027408	-0.29446
0.00027448	0.27346	0.00027448	-0.2887
0.00027488	0.27319	0.00027488	-0.28212
0.00027528	0.27346	0.00027528	-0.27553
0.00027568	0.27157	0.00027568	-0.26922
0.00027608	0.27319	0.00027608	-0.26044
0.00027648	0.27211	0.00027648	-0.25111
0.00027688	0.27427	0.00027688	-0.24535
0.00027728	0.27238	0.00027728	-0.23548
0.00027768	0.27265	0.00027768	-0.22615
0.00027808	0.2713	0.00027808	-0.21709
0.00027848	0.27157	0.00027848	-0.20749
0.00027888	0.27319	0.00027888	-0.19679
0.00027928	0.27238	0.00027928	-0.18719
0.00027968	0.27319	0.00027968	-0.17676
0.00028008	0.27292	0.00028008	-0.16579
0.00028048	0.27184	0.00028048	-0.15509
0.00028088	0.27265	0.00028088	-0.1422
0.00028128	0.27265	0.00028128	-0.13287
0.00028168	0.27265	0.00028168	-0.11833
0.00028208	0.27346	0.00028208	-0.10708
0.00028248	0.27157	0.00028248	-0.09556
0.00028288	0.27021	0.00028288	-0.08321
0.00028328	0.27292	0.00028328	-0.07333
0.00028368	0.27319	0.00028368	-0.05989
0.00028408	0.2713	0.00028408	-0.04672
0.00028448	0.27076	0.00028448	-0.03712
0.00028488	0.27346	0.00028488	-0.02203
0.00028528	0.27265	0.00028528	-0.00996
0.00028568	0.27184	0.00028568	0.00156
0.00028608	0.27292	0.00028608	0.01364
0.00028648	0.27292	0.00028648	0.02653
0.00028688	0.27265	0.00028688	0.03668
0.00028728	0.27211	0.00028728	0.05095
0.00028768	0.27346	0.00028768	0.06384
0.00028808	0.27103	0.00028808	0.07619
0.00028848	0.27157	0.00028848	0.08771
0.00028888	0.27319	0.00028888	0.1006
0.00028928	0.27049	0.00028928	0.11295
0.00028968	0.27238	0.00028968	0.12694
0.00029008	0.26994	0.00029008	0.13627
0.00029048	0.27157	0.00029048	0.15081
0.00029088	0.27157	0.00029088	0.16206
0.00029128	0.27292	0.00029128	0.17413
0.00029168	0.27076	0.00029168	0.18511
0.00029208	0.27265	0.00029208	0.19608
0.00029248	0.27373	0.00029248	0.20623
0.00029288	0.2713	0.00029288	0.21638
0.00029328	0.27184	0.00029328	0.229
0.00029368	0.27103	0.00029368	0.23751
0.00029408	0.27049	0.00029408	0.24656
0.00029448	0.27076	0.00029448	0.25534
0.00029488	0.27292	0.00029488	0.26467
0.00029528	0.27157	0.00029528	0.27207
0.00029568	0.27076	0.00029568	0.27893
0.00029608	0.27238	0.00029608	0.28579
0.00029648	0.27103	0.00029648	0.29265
0.00029688	0.27157	0.00029688	0.30225
0.00029728	0.27184	0.00029728	0.30555
0.00029768	0.27265	0.00029768	0.31213
0.00029808	0.27265	0.00029808	0.31707
0.00029848	0.26994	0.00029848	0.32365
0.00029888	0.27211	0.00029888	0.32804
0.00029928	0.27049	0.00029928	0.33408
0.00029968	0.27076	0.00029968	0.33792
0.00030008	0.27021	0.00030008	0.3445
0.00030048	0.27157	0.00030048	0.34697
0.00030088	0.27184	0.00030088	0.35109
0.00030128	0.27049	0.00030128	0.35383
0.00030168	0.27103	0.00030168	0.35904
0.00030208	0.27076	0.00030208	0.36563
0.00030248	0.27265	0.00030248	0.36782
0.00030288	0.27184	0.00030288	0.37276
0.00030328	0.27211	0.00030328	0.3766
0.00030368	0.27211	0.00030368	0.37852
0.00030408	0.27238	0.00030408	0.38538
0.00030448	0.27184	0.00030448	0.38895
0.00030488	0.27211	0.00030488	0.39169
0.00030528	0.27184	0.00030528	0.39553
0.00030568	0.27157	0.00030568	0.39828
0.00030608	0.27238	0.00030608	0.40267
0.00030648	0.27157	0.00030648	0.40486
0.00030688	0.27292	0.00030688	0.41062
0.00030728	0.27211	0.00030728	0.41391
0.00030768	0.27211	0.00030768	0.41611
0.00030808	0.27184	0.00030808	0.41858
0.00030848	0.27319	0.00030848	0.42461
0.00030888	0.27157	0.00030888	0.42791
0.00030928	0.27184	0.00030928	0.42845
0.00030968	0.27157	0.00030968	0.43092
0.00031008	0.27211	0.00031008	0.43669
0.00031048	0.27346	0.00031048	0.43806
0.00031088	0.27211	0.00031088	0.4419
0.00031128	0.27265	0.00031128	0.44492
0.00031168	0.27238	0.00031168	0.44876
0.00031208	0.27103	0.00031208	0.4515
0.00031248	0.27319	0.00031248	0.45315
0.00031288	0.27211	0.00031288	0.45699
0.00031328	0.27238	0.00031328	0.45808
0.00031368	0.27238	0.00031368	0.4622
0.00031408	0.27238	0.00031408	0.46632
0.00031448	0.27211	0.00031448	0.46796
0.00031488	0.27265	0.00031488	0.46851
0.00031528	0.27157	0.00031528	0.47317
0.00031568	0.27049	0.00031568	0.47372
0.00031608	0.27292	0.00031608	0.47619
0.00031648	0.27021	0.00031648	0.48003
0.00031688	0.27211	0.00031688	0.48333
0.00031728	0.27184	0.00031728	0.4847
0.00031768	0.27536	0.00031768	0.48744
0.00031808	0.27265	0.00031808	0.49018
0.00031848	0.27211	0.00031848	0.49265
0.00031888	0.27184	0.00031888	0.49567
0.00031928	0.27238	0.00031928	0.49787
0.00031968	0.27211	0.00031968	0.50033
0.00032008	0.27184	0.00032008	0.50308
0.00032048	0.27049	0.00032048	0.50527
0.00032088	0.274	0.00032088	0.50884
0.00032128	0.27184	0.00032128	0.51186
0.00032168	0.27157	0.00032168	0.51021
0.00032208	0.27238	0.00032208	0.51268
0.00032248	0.27265	0.00032248	0.5146
0.00032288	0.27157	0.00032288	0.51762
0.00032328	0.27265	0.00032328	0.51981
0.00032368	0.27049	0.00032368	0.52064
0.00032408	0.27427	0.00032408	0.52256
0.00032448	0.27184	0.00032448	0.52503
0.00032488	0.27292	0.00032488	0.52722
0.00032528	0.27184	0.00032528	0.52695
0.00032568	0.27211	0.00032568	0.52914
0.00032608	0.27373	0.00032608	0.53271
0.00032648	0.27427	0.00032648	0.53408
0.00032688	0.27184	0.00032688	0.53545
0.00032728	0.27184	0.00032728	0.5382
0.00032768	0.27319	0.00032768	0.53847
0.00032808	0.27265	0.00032808	0.54121
0.00032848	0.27157	0.00032848	0.54259
0.00032888	0.27292	0.00032888	0.54286
0.00032928	0.27346	0.00032928	0.54615
0.00032968	0.274	0.00032968	0.54615
0.00033008	0.27373	0.00033008	0.54725
0.00033048	0.27238	0.00033048	0.54972
0.00033088	0.27238	0.00033088	0.55082
0.00033128	0.27482	0.00033128	0.55356
0.00033168	0.274	0.00033168	0.55438
0.00033208	0.27265	0.00033208	0.55466
0.00033248	0.27373	0.00033248	0.55575
0.00033288	0.27346	0.00033288	0.55795
0.00033328	0.27265	0.00033328	0.56069
0.00033368	0.27265	0.00033368	0.56124
0.00033408	0.27373	0.00033408	0.56426
0.00033448	0.27292	0.00033448	0.56371
0.00033488	0.27265	0.00033488	0.56316
0.00033528	0.27319	0.00033528	0.56783
0.00033568	0.27373	0.00033568	0.5692
0.00033608	0.27346	0.00033608	0.5692
0.00033648	0.27292	0.00033648	0.57029
0.00033688	0.27238	0.00033688	0.57057
0.00033728	0.27509	0.00033728	0.57194
0.00033768	0.27346	0.00033768	0.57194
0.00033808	0.27373	0.00033808	0.57414
0.00033848	0.27427	0.00033848	0.57276
0.00033888	0.27373	0.00033888	0.57414
0.00033928	0.27346	0.00033928	0.57523
0.00033968	0.27373	0.00033968	0.57853
0.00034008	0.27184	0.00034008	0.57743
0.00034048	0.27292	0.00034048	0.57935
0.00034088	0.274	0.00034088	0.57935
0.00034128	0.27319	0.00034128	0.5799
0.00034168	0.27617	0.00034168	0.5799
0.00034208	0.27319	0.00034208	0.58237
0.00034248	0.27346	0.00034248	0.58237
0.00034288	0.27373	0.00034288	0.58264
0.00034328	0.274	0.00034328	0.58401
0.00034368	0.274	0.00034368	0.58401
0.00034408	0.27427	0.00034408	0.58456
0.00034448	0.27238	0.00034448	0.58484
0.00034488	0.27536	0.00034488	0.58538
0.00034528	0.27455	0.00034528	0.58456
0.00034568	0.27373	0.00034568	0.58703
0.00034608	0.274	0.00034608	0.58621
0.00034648	0.27455	0.00034648	0.58813
0.00034688	0.27617	0.00034688	0.58648
0.00034728	0.27536	0.00034728	0.58648
0.00034768	0.27427	0.00034768	0.5873
0.00034808	0.27319	0.00034808	0.58813
0.00034848	0.27346	0.00034848	0.5873
0.00034888	0.27319	0.00034888	0.5884
0.00034928	0.27455	0.00034928	0.58922
0.00034968	0.27427	0.00034968	0.59005
0.00035008	0.274	0.00035008	0.59005
0.00035048	0.27319	0.00035048	0.58868
0.00035088	0.27319	0.00035088	0.5884
0.00035128	0.27346	0.00035128	0.58922
0.00035168	0.27482	0.00035168	0.58895
0.00035208	0.27346	0.00035208	0.58785
0.00035248	0.274	0.00035248	0.58868
0.00035288	0.27698	0.00035288	0.59087
0.00035328	0.27319	0.00035328	0.58977
0.00035368	0.27373	0.00035368	0.58977
0.00035408	0.27427	0.00035408	0.58785
0.00035448	0.27671	0.00035448	0.5884
0.00035488	0.27536	0.00035488	0.5884
0.00035528	0.27482	0.00035528	0.5884
0.00035568	0.27238	0.00035568	0.58785
0.00035608	0.27563	0.00035608	0.58922
0.00035648	0.27427	0.00035648	0.58648
0.00035688	0.27455	0.00035688	0.58676
0.00035728	0.27536	0.00035728	0.58401
0.00035768	0.27427	0.00035768	0.58676
0.00035808	0.27482	0.00035808	0.58593
0.00035848	0.27455	0.00035848	0.58676
0.00035888	0.27563	0.00035888	0.58676
0.00035928	0.27536	0.00035928	0.5873
0.00035968	0.27536	0.00035968	0.58429
0.00036008	0.27509	0.00036008	0.58291
0.00036048	0.27427	0.00036048	0.58401
0.00036088	0.27536	0.00036088	0.58045
0.00036128	0.27482	0.00036128	0.58182
0.00036168	0.27563	0.00036168	0.58237
0.00036208	0.27671	0.00036208	0.58154
0.00036248	0.27346	0.00036248	0.58127
0.00036288	0.27346	0.00036288	0.57798
0.00036328	0.27455	0.00036328	0.57907
0.00036368	0.27455	0.00036368	0.5777
0.00036408	0.27563	0.00036408	0.57715
0.00036448	0.27563	0.00036448	0.57523
0.00036488	0.27455	0.00036488	0.5766
0.00036528	0.27563	0.00036528	0.57468
0.00036568	0.274	0.00036568	0.57441
0.00036608	0.274	0.00036608	0.57167
0.00036648	0.274	0.00036648	0.57167
0.00036688	0.27455	0.00036688	0.57222
0.00036728	0.27427	0.00036728	0.57112
0.00036768	0.27482	0.00036768	0.57002
0.00036808	0.27455	0.00036808	0.56837
0.00036848	0.27536	0.00036848	0.56783
0.00036888	0.27455	0.00036888	0.56536
0.00036928	0.27698	0.00036928	0.56563
0.00036968	0.27536	0.00036968	0.56481
0.00037008	0.2759	0.00037008	0.56289
0.00037048	0.27509	0.00037048	0.56234
0.00037088	0.2759	0.00037088	0.56069
0.00037128	0.27482	0.00037128	0.56042
0.00037168	0.27427	0.00037168	0.55767
0.00037208	0.27671	0.00037208	0.55603
0.00037248	0.27427	0.00037248	0.55438
0.00037288	0.2759	0.00037288	0.55383
0.00037328	0.27752	0.00037328	0.55466
0.00037368	0.2759	0.00037368	0.55027
0.00037408	0.27455	0.00037408	0.55082
0.00037448	0.27698	0.00037448	0.54917
0.00037488	0.27482	0.00037488	0.54643
0.00037528	0.27563	0.00037528	0.54286
0.00037568	0.27536	0.00037568	0.54396
0.00037608	0.27455	0.00037608	0.54231
0.00037648	0.27671	0.00037648	0.54231
0.00037688	0.27563	0.00037688	0.54039
0.00037728	0.2759	0.00037728	0.53737
0.00037768	0.27482	0.00037768	0.536
0.00037808	0.27509	0.00037808	0.53463
0.00037848	0.27644	0.00037848	0.53271
0.00037888	0.27617	0.00037888	0.53189
0.00037928	0.27536	0.00037928	0.52887
0.00037968	0.27509	0.00037968	0.5275
0.00038008	0.27617	0.00038008	0.5253
0.00038048	0.27563	0.00038048	0.52311
0.00038088	0.2759	0.00038088	0.52365
0.00038128	0.27644	0.00038128	0.52064
0.00038168	0.27482	0.00038168	0.51789
0.00038208	0.27536	0.00038208	0.51707
0.00038248	0.27563	0.00038248	0.51378
0.00038288	0.2759	0.00038288	0.51433
0.00038328	0.27671	0.00038328	0.51049
0.00038368	0.2759	0.00038368	0.50911
0.00038408	0.27698	0.00038408	0.50802
0.00038448	0.27536	0.00038448	0.50335
0.00038488	0.27752	0.00038488	0.50472
0.00038528	0.27671	0.00038528	0.50033
0.00038568	0.27671	0.00038568	0.49869
0.00038608	0.27644	0.00038608	0.49759
0.00038648	0.27563	0.00038648	0.49485
0.00038688	0.27617	0.00038688	0.49183
0.00038728	0.27617	0.00038728	0.49101
0.00038768	0.27617	0.00038768	0.48607
0.00038808	0.27725	0.00038808	0.48525
0.00038848	0.27617	0.00038848	0.4825
0.00038888	0.27509	0.00038888	0.47948
0.00038928	0.27671	0.00038928	0.47784
0.00038968	0.27482	0.00038968	0.47619
0.00039008	0.27644	0.00039008	0.47427
0.00039048	0.27427	0.00039048	0.4707
0.00039088	0.27806	0.00039088	0.46933
0.00039128	0.27671	0.00039128	0.46604
0.00039168	0.27725	0.00039168	0.46412
0.00039208	0.27482	0.00039208	0.46165
0.00039248	0.27698	0.00039248	0.45754
0.00039288	0.27671	0.00039288	0.4537
0.00039328	0.27509	0.00039328	0.45287
0.00039368	0.27536	0.00039368	0.45095
0.00039408	0.27779	0.00039408	0.44848
0.00039448	0.27752	0.00039448	0.44739
0.00039488	0.27779	0.00039488	0.44382
0.00039528	0.27644	0.00039528	0.44108
0.00039568	0.27833	0.00039568	0.43723
0.00039608	0.27617	0.00039608	0.43586
0.00039648	0.27536	0.00039648	0.43175
0.00039688	0.27888	0.00039688	0.42873
0.00039728	0.27644	0.00039728	0.42544
0.00039768	0.27698	0.00039768	0.42434
0.00039808	0.2759	0.00039808	0.41885
0.00039848	0.27509	0.00039848	0.41693
0.00039888	0.27563	0.00039888	0.41391
0.00039928	0.27563	0.00039928	0.41145
0.00039968	0.27725	0.00039968	0.40952
0.00040008	0.27563	0.00040008	0.40431
0.00040048	0.27644	0.00040048	0.40349
0.00040088	0.27779	0.00040088	0.39882
0.00040128	0.27752	0.00040128	0.39526
0.00040168	0.27725	0.00040168	0.39471
0.00040208	0.274	0.00040208	0.3895
0.00040248	0.27698	0.00040248	0.38675
0.00040288	0.27536	0.00040288	0.38209
0.00040328	0.27752	0.00040328	0.37989
0.00040368	0.27644	0.00040368	0.3777
0.00040408	0.27725	0.00040408	0.37496
0.00040448	0.27698	0.00040448	0.37084
0.00040488	0.27671	0.00040488	0.36618
0.00040528	0.2759	0.00040528	0.36179
0.00040568	0.2759	0.00040568	0.3585
0.00040608	0.27725	0.00040608	0.35465
0.00040648	0.27671	0.00040648	0.34999
0.00040688	0.27509	0.00040688	0.34642
0.00040728	0.27698	0.00040728	0.34341
0.00040768	0.2759	0.00040768	0.33929
0.00040808	0.27725	0.00040808	0.33682
0.00040848	0.27725	0.00040848	0.33161
0.00040888	0.27671	0.00040888	0.32941
0.00040928	0.27698	0.00040928	0.32365
0.00040968	0.2759	0.00040968	0.31954
0.00041008	0.27482	0.00041008	0.31679
0.00041048	0.27752	0.00041048	0.31295
0.00041088	0.27644	0.00041088	0.30609
0.00041128	0.27806	0.00041128	0.30417
0.00041168	0.27482	0.00041168	0.30143
0.00041208	0.27455	0.00041208	0.29457
0.00041248	0.27779	0.00041248	0.28936
0.00041288	0.27725	0.00041288	0.28771
0.00041328	0.27644	0.00041328	0.28168
0.00041368	0.27752	0.00041368	0.27756
0.00041408	0.27563	0.00041408	0.27207
0.00041448	0.2759	0.00041448	0.26741
0.00041488	0.27644	0.00041488	0.2622
0.00041528	0.27725	0.00041528	0.25891
0.00041568	0.27779	0.00041568	0.25369
0.00041608	0.27806	0.00041608	0.2493
0.00041648	0.27644	0.00041648	0.24656
0.00041688	0.2759	0.00041688	0.24299
0.00041728	0.27617	0.00041728	0.24025
0.00041768	0.27725	0.00041768	0.23421
0.00041808	0.27482	0.00041808	0.23202
0.00041848	0.2759	0.00041848	0.22653
0.00041888	0.27644	0.00041888	0.22379
0.00041928	0.27536	0.00041928	0.22132
0.00041968	0.27698	0.00041968	0.21967
0.00042008	0.27617	0.00042008	0.21446
0.00042048	0.27833	0.00042048	0.21144
0.00042088	0.27563	0.00042088	0.21254
0.00042128	0.27563	0.00042128	0.2087
0.00042168	0.274	0.00042168	0.20678
0.00042208	0.27698	0.00042208	0.20404
0.00042248	0.27725	0.00042248	0.20349
0.00042288	0.27671	0.00042288	0.20184
0.00042328	0.27563	0.00042328	0.1991
0.00042368	0.27725	0.00042368	0.20047
0.00042408	0.27617	0.00042408	0.19882
0.00042448	0.27563	0.00042448	0.1991
0.00042488	0.27671	0.00042488	0.19526
0.00042528	0.27644	0.00042528	0.19553
0.00042568	0.27617	0.00042568	0.19361
0.00042608	0.27698	0.00042608	0.19416
0.00042648	0.27617	0.00042648	0.19498
0.00042688	0.27563	0.00042688	0.19251
0.00042728	0.27779	0.00042728	0.19251
0.00042768	0.27617	0.00042768	0.19361
0.00042808	0.27563	0.00042808	0.19361
0.00042848	0.2759	0.00042848	0.19224
0.00042888	0.27427	0.00042888	0.19251
0.00042928	0.2759	0.00042928	0.19224
0.00042968	0.27752	0.00042968	0.19251
0.00043008	0.2759	0.00043008	0.19251
0.00043048	0.27671	0.00043048	0.19334
0.00043088	0.27563	0.00043088	0.19224
0.00043128	0.27536	0.00043128	0.19224
0.00043168	0.27482	0.00043168	0.19059
0.00043208	0.2759	0.00043208	0.19169
0.00043248	0.27671	0.00043248	0.19334
0.00043288	0.27671	0.00043288	0.19279
0.00043328	0.27671	0.00043328	0.19443
0.00043368	0.27536	0.00043368	0.19361
0.00043408	0.2759	0.00043408	0.19471
0.00043448	0.27644	0.00043448	0.19471
0.00043488	0.27833	0.00043488	0.19279
0.00043528	0.27644	0.00043528	0.19526
0.00043568	0.27509	0.00043568	0.19279
0.00043608	0.27427	0.00043608	0.19635
0.00043648	0.27536	0.00043648	0.19635
0.00043688	0.27644	0.00043688	0.19553
0.00043728	0.27644	0.00043728	0.19608
0.00043768	0.27698	0.00043768	0.19663
0.00043808	0.2759	0.00043808	0.19663
0.00043848	0.27509	0.00043848	0.1958
0.00043888	0.27644	0.00043888	0.1969
0.00043928	0.2759	0.00043928	0.19773
0.00043968	0.27779	0.00043968	0.19745
0.00044008	0.27671	0.00044008	0.19965
0.00044048	0.27752	0.00044048	0.19773
0.00044088	0.27536	0.00044088	0.19992
0.00044128	0.27482	0.00044128	0.19855
0.00044168	0.27671	0.00044168	0.19827
0.00044208	0.27617	0.00044208	0.1991
0.00044248	0.27536	0.00044248	0.19882
0.00044288	0.27482	0.00044288	0.20047
0.00044328	0.27536	0.00044328	0.19965
0.00044368	0.27698	0.00044368	0.20047
0.00044408	0.27563	0.00044408	0.20266
0.00044448	0.27617	0.00044448	0.20431
0.00044488	0.27617	0.00044488	0.20349
0.00044528	0.27644	0.00044528	0.20376
0.00044568	0.27617	0.00044568	0.20513
0.00044608	0.27563	0.00044608	0.20541
0.00044648	0.27725	0.00044648	0.20513
0.00044688	0.27563	0.00044688	0.2076
0.00044728	0.27698	0.00044728	0.21089
0.00044768	0.2759	0.00044768	0.21117
0.00044808	0.27617	0.00044808	0.21336
0.00044848	0.27644	0.00044848	0.21611
0.00044888	0.27644	0.00044888	0.21912
0.00044928	0.27698	0.00044928	0.22132
0.00044968	0.27698	0.00044968	0.22543
0.00045008	0.27563	0.00045008	0.22736
0.00045048	0.27644	0.00045048	0.23312
0.00045088	0.2759	0.00045088	0.23449
0.00045128	0.27644	0.00045128	0.24107
0.00045168	0.27536	0.00045168	0.24491
0.00045208	0.27563	0.00045208	0.25095
0.00045248	0.27644	0.00045248	0.25452
0.00045288	0.2759	0.00045288	0.25726
0.00045328	0.27455	0.00045328	0.26302
0.00045368	0.27427	0.00045368	0.26714
0.00045408	0.2759	0.00045408	0.2718
0.00045448	0.27536	0.00045448	0.27784
0.00045488	0.2759	0.00045488	0.28003
0.00045528	0.27563	0.00045528	0.28332
0.00045568	0.27617	0.00045568	0.28634
0.00045608	0.27563	0.00045608	0.29018
0.00045648	0.27346	0.00045648	0.29018
0.00045688	0.27617	0.00045688	0.29238
0.00045728	0.27455	0.00045728	0.29622
0.00045768	0.27455	0.00045768	0.29677
0.00045808	0.27536	0.00045808	0.30088
0.00045848	0.27455	0.00045848	0.30253
0.00045888	0.27671	0.00045888	0.3028
0.00045928	0.27482	0.00045928	0.3039
0.00045968	0.27644	0.00045968	0.30555
0.00046008	0.2759	0.00046008	0.30637
0.00046048	0.27509	0.00046048	0.30939
0.00046088	0.27536	0.00046088	0.30829
0.00046128	0.27427	0.00046128	0.30829
0.00046168	0.2759	0.00046168	0.31021
0.00046208	0.2759	0.00046208	0.30911
0.00046248	0.2759	0.00046248	0.31268
0.00046288	0.27752	0.00046288	0.31186
0.00046328	0.27482	0.00046328	0.31186
0.00046368	0.27482	0.00046368	0.31323
0.00046408	0.27509	0.00046408	0.30994
0.00046448	0.27455	0.00046448	0.31268
0.00046488	0.27644	0.00046488	0.3135
0.00046528	0.27644	0.00046528	0.3135
0.00046568	0.27563	0.00046568	0.31405
0.00046608	0.2759	0.00046608	0.3135
0.00046648	0.27536	0.00046648	0.31323
0.00046688	0.27725	0.00046688	0.3124
0.00046728	0.27644	0.00046728	0.31432
0.00046768	0.27509	0.00046768	0.31295
0.00046808	0.27536	0.00046808	0.31323
0.00046848	0.27563	0.00046848	0.31378
0.00046888	0.27509	0.00046888	0.3124
0.00046928	0.27563	0.00046928	0.31323
0.00046968	0.27482	0.00046968	0.31268
0.00047008	0.27671	0.00047008	0.31432
0.00047048	0.27536	0.00047048	0.31323
0.00047088	0.27671	0.00047088	0.3124
0.00047128	0.27563	0.00047128	0.3124
0.00047168	0.27536	0.00047168	0.31378
0.00047208	0.27373	0.00047208	0.31103
0.00047248	0.27671	0.00047248	0.31076
0.00047288	0.2759	0.00047288	0.31103
0.00047328	0.27806	0.00047328	0.31048
0.00047368	0.27482	0.00047368	0.30966
0.00047408	0.27644	0.00047408	0.30994
0.00047448	0.27671	0.00047448	0.31048
0.00047488	0.27617	0.00047488	0.31131
0.00047528	0.27617	0.00047528	0.30966
0.00047568	0.27482	0.00047568	0.30911
0.00047608	0.27427	0.00047608	0.30884
0.00047648	0.27482	0.00047648	0.30774
0.00047688	0.27482	0.00047688	0.30582
0.00047728	0.27644	0.00047728	0.30472
0.00047768	0.27455	0.00047768	0.30472
0.00047808	0.2759	0.00047808	0.305
0.00047848	0.27617	0.00047848	0.30417
0.00047888	0.27563	0.00047888	0.30308
0.00047928	0.27617	0.00047928	0.29924
0.00047968	0.27725	0.00047968	0.29841
0.00048008	0.27427	0.00048008	0.29731
0.00048048	0.27536	0.00048048	0.29649
0.00048088	0.27482	0.00048088	0.29485
0.00048128	0.27671	0.00048128	0.29238
0.00048168	0.27563	0.00048168	0.29238
0.00048208	0.27806	0.00048208	0.29238
0.00048248	0.27536	0.00048248	0.28963
0.00048288	0.27563	0.00048288	0.28881
0.00048328	0.27563	0.00048328	0.28387
0.00048368	0.27563	0.00048368	0.28497
0.00048408	0.27563	0.00048408	0.28442
0.00048448	0.27536	0.00048448	0.2836
0.00048488	0.27482	0.00048488	0.28305
0.00048528	0.27455	0.00048528	0.28524
0.00048568	0.27482	0.00048568	0.28497
0.00048608	0.27563	0.00048608	0.28524
0.00048648	0.27563	0.00048648	0.28854
0.00048688	0.27617	0.00048688	0.28881
0.00048728	0.27644	0.00048728	0.29018
0.00048768	0.27536	0.00048768	0.2932
0.00048808	0.274	0.00048808	0.29539
0.00048848	0.27671	0.00048848	0.29759
0.00048888	0.2759	0.00048888	0.30061
0.00048928	0.27698	0.00048928	0.3039
0.00048968	0.2759	0.00048968	0.30609
0.00049008	0.2759	0.00049008	0.30884
0.00049048	0.27536	0.00049048	0.31323
0.00049088	0.27617	0.00049088	0.31871
0.00049128	0.27563	0.00049128	0.31899
0.00049168	0.27671	0.00049168	0.32448
0.00049208	0.27455	0.00049208	0.32365
0.00049248	0.27671	0.00049248	0.33079
0.00049288	0.27509	0.00049288	0.33079
0.00049328	0.27455	0.00049328	0.33435
0.00049368	0.27698	0.00049368	0.33929
0.00049408	0.27644	0.00049408	0.34423
0.00049448	0.27617	0.00049448	0.34642
0.00049488	0.2759	0.00049488	0.34807
0.00049528	0.27563	0.00049528	0.35191
0.00049568	0.27671	0.00049568	0.3585
0.00049608	0.27563	0.00049608	0.35795
0.00049648	0.27644	0.00049648	0.35877
0.00049688	0.27509	0.00049688	0.36426
0.00049728	0.27509	0.00049728	0.36673
0.00049768	0.27482	0.00049768	0.37166
0.00049808	0.27617	0.00049808	0.37496
0.00049848	0.27698	0.00049848	0.37715
0.00049888	0.27779	0.00049888	0.38154
0.00049928	0.27455	0.00049928	0.38236
0.00049968	0.27698	0.00049968	0.38428
0.00050008	0.27617	0.00050008	0.3895
0.00050048	0.27536	0.00050048	0.39361
0.00050088	0.27563	0.00050088	0.39581
0.00050128	0.274	0.00050128	0.39828
0.00050168	0.27644	0.00050168	0.40075
0.00050208	0.27617	0.00050208	0.40321
0.00050248	0.27536	0.00050248	0.40706
0.00050288	0.2759	0.00050288	0.41007
0.00050328	0.27725	0.00050328	0.41254
0.00050368	0.27373	0.00050368	0.41474
0.00050408	0.27725	0.00050408	0.41721
0.00050448	0.27536	0.00050448	0.41968
0.00050488	0.2759	0.00050488	0.42269
0.00050528	0.27644	0.00050528	0.42407
0.00050568	0.27536	0.00050568	0.42708
0.00050608	0.27644	0.00050608	0.42983
0.00050648	0.27671	0.00050648	0.43367
0.00050688	0.27698	0.00050688	0.43367
0.00050728	0.27644	0.00050728	0.4408
0.00050768	0.27536	0.00050768	0.44053
0.00050808	0.27482	0.00050808	0.44437
0.00050848	0.27671	0.00050848	0.44766
0.00050888	0.27509	0.00050888	0.45095
0.00050928	0.2759	0.00050928	0.45232
0.00050968	0.27644	0.00050968	0.45534
0.00051008	0.2759	0.00051008	0.45754
0.00051048	0.2759	0.00051048	0.45891
0.00051088	0.27671	0.00051088	0.46138
0.00051128	0.27509	0.00051128	0.46302
0.00051168	0.27563	0.00051168	0.46714
0.00051208	0.2759	0.00051208	0.46824
0.00051248	0.2759	0.00051248	0.4707
0.00051288	0.27725	0.00051288	0.47427
0.00051328	0.27644	0.00051328	0.47509
0.00051368	0.2759	0.00051368	0.47811
0.00051408	0.27698	0.00051408	0.48058
0.00051448	0.27779	0.00051448	0.48223
0.00051488	0.2759	0.00051488	0.4847
0.00051528	0.27698	0.00051528	0.48552
0.00051568	0.27779	0.00051568	0.48881
0.00051608	0.2759	0.00051608	0.49018
0.00051648	0.2759	0.00051648	0.49156
0.00051688	0.27509	0.00051688	0.4954
0.00051728	0.27482	0.00051728	0.49677
0.00051768	0.27698	0.00051768	0.49622
0.00051808	0.27536	0.00051808	0.50088
0.00051848	0.2759	0.00051848	0.50143
0.00051888	0.27752	0.00051888	0.50445
0.00051928	0.27671	0.00051928	0.505
0.00051968	0.27644	0.00051968	0.50719
0.00052008	0.27644	0.00052008	0.51021
0.00052048	0.27644	0.00052048	0.51103
0.00052088	0.27482	0.00052088	0.51241
0.00052128	0.2759	0.00052128	0.5146
0.00052168	0.2759	0.00052168	0.51597
0.00052208	0.2759	0.00052208	0.51707
0.00052248	0.27725	0.00052248	0.51954
0.00052288	0.27698	0.00052288	0.52036
0.00052328	0.27671	0.00052328	0.52558
0.00052368	0.27671	0.00052368	0.52503
0.00052408	0.27671	0.00052408	0.52667
0.00052448	0.27563	0.00052448	0.52914
0.00052488	0.27752	0.00052488	0.52859
0.00052528	0.27671	0.00052528	0.53189
0.00052568	0.27536	0.00052568	0.53271
0.00052608	0.27752	0.00052608	0.53573
0.00052648	0.27617	0.00052648	0.53627
0.00052688	0.27725	0.00052688	0.53984
0.00052728	0.27779	0.00052728	0.5382
0.00052768	0.27671	0.00052768	0.54012
0.00052808	0.27536	0.00052808	0.54204
0.00052848	0.27725	0.00052848	0.54121
0.00052888	0.27698	0.00052888	0.54533
0.00052928	0.27698	0.00052928	0.54505
0.00052968	0.27644	0.00052968	0.5467
0.00053008	0.27644	0.00053008	0.54807
0.00053048	0.27752	0.00053048	0.54999
0.00053088	0.27644	0.00053088	0.55191
0.00053128	0.27671	0.00053128	0.55301
0.00053168	0.27806	0.00053168	0.55383
0.00053208	0.27698	0.00053208	0.55521
0.00053248	0.27671	0.00053248	0.55767
0.00053288	0.27752	0.00053288	0.55685
0.00053328	0.27752	0.00053328	0.55658
0.00053368	0.27833	0.00053368	0.55713
0.00053408	0.27806	0.00053408	0.55905
0.00053448	0.27644	0.00053448	0.55795
0.00053488	0.27563	0.00053488	0.56069
0.00053528	0.27806	0.00053528	0.56261
0.00053568	0.27833	0.00053568	0.56398
0.00053608	0.27698	0.00053608	0.56344
0.00053648	0.27698	0.00053648	0.56563
0.00053688	0.27725	0.00053688	0.56645
0.00053728	0.27888	0.00053728	0.56755
0.00053768	0.27698	0.00053768	0.567
0.00053808	0.27833	0.00053808	0.5681
0.00053848	0.27752	0.00053848	0.5681
0.00053888	0.27888	0.00053888	0.56755
0.00053928	0.27806	0.00053928	0.57002
0.00053968	0.27671	0.00053968	0.56892
0.00054008	0.27806	0.00054008	0.57084
0.00054048	0.27806	0.00054048	0.57057
0.00054088	0.27888	0.00054088	0.57057
0.00054128	0.27806	0.00054128	0.57194
0.00054168	0.27752	0.00054168	0.57222
0.00054208	0.27806	0.00054208	0.57222
0.00054248	0.27806	0.00054248	0.57386
0.00054288	0.27752	0.00054288	0.57468
0.00054328	0.27752	0.00054328	0.57222
0.00054368	0.27725	0.00054368	0.57276
0.00054408	0.27725	0.00054408	0.57606
0.00054448	0.27833	0.00054448	0.57606
0.00054488	0.27806	0.00054488	0.57551
0.00054528	0.27915	0.00054528	0.57715
0.00054568	0.27915	0.00054568	0.57715
0.00054608	0.27779	0.00054608	0.57743
0.00054648	0.27779	0.00054648	0.5766
0.00054688	0.27888	0.00054688	0.57825
0.00054728	0.27806	0.00054728	0.5766
0.00054768	0.27806	0.00054768	0.57633
0.00054808	0.27725	0.00054808	0.57743
0.00054848	0.27752	0.00054848	0.57715
0.00054888	0.27779	0.00054888	0.57715
0.00054928	0.27915	0.00054928	0.57606
0.00054968	0.27725	0.00054968	0.57688
0.00055008	0.27942	0.00055008	0.57606
0.00055048	0.27888	0.00055048	0.57633
0.00055088	0.27833	0.00055088	0.57715
0.00055128	0.27996	0.00055128	0.57743
0.00055168	0.27888	0.00055168	0.5766
0.00055208	0.2786	0.00055208	0.57743
0.00055248	0.27833	0.00055248	0.57853
0.00055288	0.27806	0.00055288	0.57606
0.00055328	0.27779	0.00055328	0.57715
0.00055368	0.27888	0.00055368	0.57606
0.00055408	0.2786	0.00055408	0.57606
0.00055448	0.27915	0.00055448	0.57468
0.00055488	0.27888	0.00055488	0.57276
0.00055528	0.27752	0.00055528	0.57578
0.00055568	0.2786	0.00055568	0.57331
0.00055608	0.27806	0.00055608	0.57167
0.00055648	0.27806	0.00055648	0.56975
0.00055688	0.27833	0.00055688	0.57112
0.00055728	0.2786	0.00055728	0.57194
0.00055768	0.27752	0.00055768	0.57084
0.00055808	0.27915	0.00055808	0.56975
0.00055848	0.27671	0.00055848	0.5681
0.00055888	0.27833	0.00055888	0.5681
0.00055928	0.27698	0.00055928	0.56892
0.00055968	0.27806	0.00055968	0.56344
0.00056008	0.2786	0.00056008	0.56618
0.00056048	0.27833	0.00056048	0.56426
0.00056088	0.2786	0.00056088	0.56344
0.00056128	0.27915	0.00056128	0.56508
0.00056168	0.27969	0.00056168	0.56426
0.00056208	0.27888	0.00056208	0.56069
0.00056248	0.2786	0.00056248	0.55905
0.00056288	0.27915	0.00056288	0.56014
0.00056328	0.27888	0.00056328	0.55713
0.00056368	0.27969	0.00056368	0.55932
0.00056408	0.2786	0.00056408	0.5585
0.00056448	0.27806	0.00056448	0.55603
0.00056488	0.27915	0.00056488	0.55383
0.00056528	0.27942	0.00056528	0.55301
0.00056568	0.27915	0.00056568	0.55136
0.00056608	0.27752	0.00056608	0.55082
0.00056648	0.27915	0.00056648	0.54972
0.00056688	0.27888	0.00056688	0.5478
0.00056728	0.27806	0.00056728	0.54697
0.00056768	0.27779	0.00056768	0.54588
0.00056808	0.27833	0.00056808	0.54478
0.00056848	0.2786	0.00056848	0.54341
0.00056888	0.27915	0.00056888	0.54259
0.00056928	0.27888	0.00056928	0.54094
0.00056968	0.27942	0.00056968	0.53874
0.00057008	0.27969	0.00057008	0.53627
0.00057048	0.2786	0.00057048	0.536
0.00057088	0.28077	0.00057088	0.53243
0.00057128	0.2786	0.00057128	0.53189
0.00057168	0.27942	0.00057168	0.53106
0.00057208	0.2786	0.00057208	0.52887
0.00057248	0.27888	0.00057248	0.52722
0.00057288	0.27969	0.00057288	0.5264
0.00057328	0.2786	0.00057328	0.5264
0.00057368	0.27806	0.00057368	0.52311
0.00057408	0.27779	0.00057408	0.52036
0.00057448	0.27888	0.00057448	0.51954
0.00057488	0.27888	0.00057488	0.51872
0.00057528	0.27806	0.00057528	0.51542
0.00057568	0.27752	0.00057568	0.51433
0.00057608	0.27942	0.00057608	0.51241
0.00057648	0.28077	0.00057648	0.51021
0.00057688	0.27942	0.00057688	0.50966
0.00057728	0.27942	0.00057728	0.5061
0.00057768	0.2786	0.00057768	0.50472
0.00057808	0.27942	0.00057808	0.50226
0.00057848	0.27996	0.00057848	0.49951
0.00057888	0.27996	0.00057888	0.49896
0.00057928	0.28023	0.00057928	0.49512
0.00057968	0.27806	0.00057968	0.49375
0.00058008	0.2786	0.00058008	0.49265
0.00058048	0.28185	0.00058048	0.49018
0.00058088	0.27833	0.00058088	0.48689
0.00058128	0.27888	0.00058128	0.4847
0.00058168	0.28104	0.00058168	0.4814
0.00058208	0.27996	0.00058208	0.48031
0.00058248	0.27942	0.00058248	0.47674
0.00058288	0.27833	0.00058288	0.47564
0.00058328	0.28023	0.00058328	0.47235
0.00058368	0.2786	0.00058368	0.46961
0.00058408	0.28023	0.00058408	0.46906
0.00058448	0.27888	0.00058448	0.46577
0.00058488	0.28077	0.00058488	0.46193
0.00058528	0.27915	0.00058528	0.46001
0.00058568	0.28077	0.00058568	0.45726
0.00058608	0.27915	0.00058608	0.45315
0.00058648	0.27833	0.00058648	0.45177
0.00058688	0.27996	0.00058688	0.45068
0.00058728	0.27969	0.00058728	0.44574
0.00058768	0.27888	0.00058768	0.44327
0.00058808	0.27833	0.00058808	0.44053
0.00058848	0.27888	0.00058848	0.43641
0.00058888	0.27996	0.00058888	0.43422
0.00058928	0.28023	0.00058928	0.42983
0.00058968	0.2786	0.00058968	0.42928
0.00059008	0.2786	0.00059008	0.42599
0.00059048	0.27996	0.00059048	0.42214
0.00059088	0.28077	0.00059088	0.41968
0.00059128	0.27833	0.00059128	0.41583
0.00059168	0.27833	0.00059168	0.41117
0.00059208	0.28104	0.00059208	0.41007
0.00059248	0.27969	0.00059248	0.40623
0.00059288	0.28077	0.00059288	0.40184
0.00059328	0.27969	0.00059328	0.39992
0.00059368	0.28077	0.00059368	0.39526
0.00059408	0.27969	0.00059408	0.39251
0.00059448	0.27888	0.00059448	0.38758
0.00059488	0.27996	0.00059488	0.38401
0.00059528	0.27942	0.00059528	0.37962
0.00059568	0.2805	0.00059568	0.37578
0.00059608	0.28104	0.00059608	0.37413
0.00059648	0.27969	0.00059648	0.36947
0.00059688	0.28077	0.00059688	0.36727
0.00059728	0.28077	0.00059728	0.36069
0.00059768	0.27915	0.00059768	0.35603
0.00059808	0.27915	0.00059808	0.35356
0.00059848	0.2805	0.00059848	0.34999
0.00059888	0.27969	0.00059888	0.3445
0.00059928	0.27915	0.00059928	0.34039
0.00059968	0.27969	0.00059968	0.33655
0.00060008	0.27969	0.00060008	0.33161
0.00060048	0.27888	0.00060048	0.32694
0.00060088	0.27888	0.00060088	0.32283
0.00060128	0.2805	0.00060128	0.32009
0.00060168	0.27969	0.00060168	0.31378
0.00060208	0.27996	0.00060208	0.30747
0.00060248	0.2805	0.00060248	0.30308
0.00060288	0.28104	0.00060288	0.29924
0.00060328	0.28104	0.00060328	0.29375
0.00060368	0.27996	0.00060368	0.28771
0.00060408	0.27996	0.00060408	0.28058
0.00060448	0.27996	0.00060448	0.27866
0.00060488	0.27888	0.00060488	0.27098
0.00060528	0.27996	0.00060528	0.26549
0.00060568	0.27996	0.00060568	0.2622
0.00060608	0.27942	0.00060608	0.25644
0.00060648	0.28104	0.00060648	0.2493
0.00060688	0.28023	0.00060688	0.24546
0.00060728	0.27942	0.00060728	0.23751
0.00060768	0.27969	0.00060768	0.22982
0.00060808	0.28023	0.00060808	0.22543
0.00060848	0.27888	0.00060848	0.21748
0.00060888	0.28104	0.00060888	0.21172
0.00060928	0.27752	0.00060928	0.20623
0.00060968	0.28104	0.00060968	0.19855
0.00061008	0.28023	0.00061008	0.19059
0.00061048	0.27942	0.00061048	0.18346
0.00061088	0.28023	0.00061088	0.17578
0.00061128	0.28104	0.00061128	0.16892
0.00061168	0.27996	0.00061168	0.16124
0.00061208	0.27888	0.00061208	0.15218
0.00061248	0.28131	0.00061248	0.1467
0.00061288	0.27969	0.00061288	0.13737
0.00061328	0.27833	0.00061328	0.13133
0.00061368	0.28023	0.00061368	0.12146
0.00061408	0.28023	0.00061408	0.11295
0.00061448	0.27888	0.00061448	0.1039
0.00061488	0.27969	0.00061488	0.09731
0.00061528	0.27996	0.00061528	0.08771
0.00061568	0.27915	0.00061568	0.07591
0.00061608	0.27969	0.00061608	0.0707
0.00061648	0.27915	0.00061648	0.06055
0.00061688	0.27996	0.00061688	0.04958
0.00061728	0.2786	0.00061728	0.04244
0.00061768	0.27942	0.00061768	0.03421
0.00061808	0.27888	0.00061808	0.02598
0.00061848	0.27915	0.00061848	0.01528
0.00061888	0.27888	0.00061888	0.0054
0.00061928	0.27942	0.00061928	-0.00255
0.00061968	0.27942	0.00061968	-0.01215
0.00062008	0.28131	0.00062008	-0.02148
0.00062048	0.27942	0.00062048	-0.02971
0.00062088	0.2805	0.00062088	-0.03904
0.00062128	0.27969	0.00062128	-0.04754
0.00062168	0.27915	0.00062168	-0.05687
0.00062208	0.2786	0.00062208	-0.06346
0.00062248	0.27969	0.00062248	-0.07196
0.00062288	0.28023	0.00062288	-0.07827
0.00062328	0.27806	0.00062328	-0.08705
0.00062368	0.27752	0.00062368	-0.09638
0.00062408	0.2786	0.00062408	-0.10379
0.00062448	0.27725	0.00062448	-0.10927
0.00062488	0.27996	0.00062488	-0.11421
0.00062528	0.27806	0.00062528	-0.12299
0.00062568	0.27915	0.00062568	-0.12985
0.00062608	0.27752	0.00062608	-0.13479
0.00062648	0.27915	0.00062648	-0.14082
0.00062688	0.27888	0.00062688	-0.14741
0.00062728	0.27833	0.00062728	-0.1518
0.00062768	0.27915	0.00062768	-0.15509
0.00062808	0.27833	0.00062808	-0.1603
0.00062848	0.2786	0.00062848	-0.16634
0.00062888	0.2786	0.00062888	-0.16908
0.00062928	0.27833	0.00062928	-0.1732
0.00062968	0.2786	0.00062968	-0.17567
0.00063008	0.27942	0.00063008	-0.17868
0.00063048	0.27752	0.00063048	-0.18225
0.00063088	0.27806	0.00063088	-0.18472
0.00063128	0.27833	0.00063128	-0.19021
0.00063168	0.27698	0.00063168	-0.19076
0.00063208	0.27996	0.00063208	-0.1924
0.00063248	0.27888	0.00063248	-0.19597
0.00063288	0.27888	0.00063288	-0.19844
0.00063328	0.27996	0.00063328	-0.20118
0.00063368	0.27779	0.00063368	-0.20393
0.00063408	0.27671	0.00063408	-0.20447
0.00063448	0.2786	0.00063448	-0.20639
0.00063488	0.27888	0.00063488	-0.20859
0.00063528	0.27833	0.00063528	-0.20886
0.00063568	0.27779	0.00063568	-0.2138
0.00063608	0.2786	0.00063608	-0.21408
0.00063648	0.27833	0.00063648	-0.21682
0.00063688	0.27698	0.00063688	-0.2149
0.00063728	0.27698	0.00063728	-0.21792
0.00063768	0.27942	0.00063768	-0.21737
0.00063808	0.27671	0.00063808	-0.22121
0.00063848	0.27779	0.00063848	-0.21956
0.00063888	0.27752	0.00063888	-0.22176
0.00063928	0.27698	0.00063928	-0.22478
0.00063968	0.2759	0.00063968	-0.22368
0.00064008	0.27779	0.00064008	-0.22505
0.00064048	0.27752	0.00064048	-0.22752
0.00064088	0.27671	0.00064088	-0.22725
0.00064128	0.27806	0.00064128	-0.22862
0.00064168	0.27536	0.00064168	-0.23054
0.00064208	0.27698	0.00064208	-0.23163
0.00064248	0.27671	0.00064248	-0.23026
0.00064288	0.27725	0.00064288	-0.23163
0.00064328	0.2759	0.00064328	-0.23356
0.00064368	0.27752	0.00064368	-0.23356
0.00064408	0.27698	0.00064408	-0.2363
0.00064448	0.27644	0.00064448	-0.2363
0.00064488	0.27644	0.00064488	-0.2374
0.00064528	0.27725	0.00064528	-0.24041
0.00064568	0.27671	0.00064568	-0.24069
0.00064608	0.27698	0.00064608	-0.24288
0.00064648	0.27617	0.00064648	-0.24233
0.00064688	0.27806	0.00064688	-0.24727
0.00064728	0.27725	0.00064728	-0.24892
0.00064768	0.27536	0.00064768	-0.24974
0.00064808	0.2759	0.00064808	-0.25413
0.00064848	0.27671	0.00064848	-0.25907
0.00064888	0.27644	0.00064888	-0.26017
0.00064928	0.27671	0.00064928	-0.26565
0.00064968	0.27698	0.00064968	-0.27004
0.00065008	0.27671	0.00065008	-0.27416
0.00065048	0.2759	0.00065048	-0.27745
0.00065088	0.27536	0.00065088	-0.28294
0.00065128	0.27671	0.00065128	-0.28815
0.00065168	0.2759	0.00065168	-0.29035
0.00065208	0.27644	0.00065208	-0.29474
0.00065248	0.27617	0.00065248	-0.29967
0.00065288	0.27644	0.00065288	-0.3005
0.00065328	0.27671	0.00065328	-0.30544
0.00065368	0.27373	0.00065368	-0.30544
0.00065408	0.27644	0.00065408	-0.3079
0.00065448	0.27617	0.00065448	-0.31037
0.00065488	0.27536	0.00065488	-0.31175
0.00065528	0.27482	0.00065528	-0.31339
0.00065568	0.27482	0.00065568	-0.31614
0.00065608	0.27509	0.00065608	-0.31586
0.00065648	0.274	0.00065648	-0.31778
0.00065688	0.27482	0.00065688	-0.3186
0.00065728	0.274	0.00065728	-0.32107
0.00065768	0.27671	0.00065768	-0.32135
0.00065808	0.27617	0.00065808	-0.32107
0.00065848	0.27536	0.00065848	-0.3219
0.00065888	0.27563	0.00065888	-0.32245
0.00065928	0.27617	0.00065928	-0.32437
0.00065968	0.27319	0.00065968	-0.32437
0.00066008	0.27427	0.00066008	-0.32629
0.00066048	0.274	0.00066048	-0.32766
0.00066088	0.274	0.00066088	-0.32656
0.00066128	0.27563	0.00066128	-0.32629
0.00066168	0.27563	0.00066168	-0.32738
0.00066208	0.27509	0.00066208	-0.32985
0.00066248	0.27455	0.00066248	-0.32903
0.00066288	0.27427	0.00066288	-0.32738
0.00066328	0.27319	0.00066328	-0.32903
0.00066368	0.27346	0.00066368	-0.32821
0.00066408	0.27482	0.00066408	-0.32958
0.00066448	0.27563	0.00066448	-0.32738
0.00066488	0.27455	0.00066488	-0.32793
0.00066528	0.27455	0.00066528	-0.32848
0.00066568	0.27346	0.00066568	-0.32766
0.00066608	0.274	0.00066608	-0.32821
0.00066648	0.27292	0.00066648	-0.32958
0.00066688	0.27346	0.00066688	-0.32848
0.00066728	0.274	0.00066728	-0.32876
0.00066768	0.27427	0.00066768	-0.32491
0.00066808	0.274	0.00066808	-0.32601
0.00066848	0.27211	0.00066848	-0.32491
0.00066888	0.27292	0.00066888	-0.32409
0.00066928	0.27346	0.00066928	-0.32491
0.00066968	0.27373	0.00066968	-0.32629
0.00067008	0.27346	0.00067008	-0.32299
0.00067048	0.27346	0.00067048	-0.32217
0.00067088	0.27346	0.00067088	-0.3208
0.00067128	0.27319	0.00067128	-0.31888
0.00067168	0.27211	0.00067168	-0.31614
0.00067208	0.27373	0.00067208	-0.31421
0.00067248	0.27238	0.00067248	-0.31065
0.00067288	0.27184	0.00067288	-0.30736
0.00067328	0.27319	0.00067328	-0.30653
0.00067368	0.27373	0.00067368	-0.30077
0.00067408	0.27292	0.00067408	-0.29419
0.00067448	0.27292	0.00067448	-0.2876
0.00067488	0.27346	0.00067488	-0.28431
0.00067528	0.27211	0.00067528	-0.27553
0.00067568	0.27265	0.00067568	-0.2695
0.00067608	0.27346	0.00067608	-0.26017
0.00067648	0.27292	0.00067648	-0.25276
0.00067688	0.27373	0.00067688	-0.24425
0.00067728	0.27292	0.00067728	-0.23383
0.00067768	0.27319	0.00067768	-0.22587
0.00067808	0.27373	0.00067808	-0.21655
0.00067848	0.27157	0.00067848	-0.20667
0.00067888	0.27319	0.00067888	-0.19679
0.00067928	0.27346	0.00067928	-0.18609
0.00067968	0.27265	0.00067968	-0.17512
0.00068008	0.2713	0.00068008	-0.16524
0.00068048	0.2713	0.00068048	-0.15317
0.00068088	0.27319	0.00068088	-0.14329
0.00068128	0.27346	0.00068128	-0.1293
0.00068168	0.27184	0.00068168	-0.1208
0.00068208	0.274	0.00068208	-0.10626
0.00068248	0.27238	0.00068248	-0.09418
0.00068288	0.27157	0.00068288	-0.08431
0.00068328	0.27211	0.00068328	-0.07059
0.00068368	0.27211	0.00068368	-0.05962
0.00068408	0.27184	0.00068408	-0.04919
0.00068448	0.27184	0.00068448	-0.03355
0.00068488	0.27238	0.00068488	-0.02395
0.00068528	0.27265	0.00068528	-0.00968
0.00068568	0.2713	0.00068568	0.00019
0.00068608	0.27346	0.00068608	0.01528
0.00068648	0.27346	0.00068648	0.02653
0.00068688	0.2713	0.00068688	0.03915
0.00068728	0.27076	0.00068728	0.05067
0.00068768	0.27211	0.00068768	0.06329
0.00068808	0.27292	0.00068808	0.07619
0.00068848	0.27184	0.00068848	0.08881
0.00068888	0.27184	0.00068888	0.10198
0.00068928	0.2713	0.00068928	0.11624
0.00068968	0.27211	0.00068968	0.12694
0.00069008	0.27211	0.00069008	0.13819
0.00069048	0.27346	0.00069048	0.15054
0.00069088	0.27184	0.00069088	0.16096
0.00069128	0.27238	0.00069128	0.17386
0.00069168	0.27238	0.00069168	0.18483
0.00069208	0.27211	0.00069208	0.19526
0.00069248	0.27184	0.00069248	0.20623
0.00069288	0.27184	0.00069288	0.21611
0.00069328	0.27211	0.00069328	0.22626
0.00069368	0.2713	0.00069368	0.23805
0.00069408	0.27238	0.00069408	0.24574
0.00069448	0.27265	0.00069448	0.25561
0.00069488	0.27265	0.00069488	0.26384
0.00069528	0.27265	0.00069528	0.27427
0.00069568	0.27211	0.00069568	0.27756
0.00069608	0.27319	0.00069608	0.28881
0.00069648	0.27265	0.00069648	0.29293
0.00069688	0.27184	0.00069688	0.30006
0.00069728	0.27238	0.00069728	0.30774
0.00069768	0.27076	0.00069768	0.3135
0.00069808	0.27184	0.00069808	0.32063
0.00069848	0.27319	0.00069848	0.32283
0.00069888	0.27157	0.00069888	0.32914
0.00069928	0.27265	0.00069928	0.33325
0.00069968	0.27076	0.00069968	0.33764
0.00070008	0.27211	0.00070008	0.34203
0.00070048	0.27076	0.00070048	0.34588
0.00070088	0.27076	0.00070088	0.35219
0.00070128	0.27103	0.00070128	0.35877
0.00070168	0.27211	0.00070168	0.36124
0.00070208	0.27184	0.00070208	0.36316
0.00070248	0.27076	0.00070248	0.36755
0.00070288	0.27184	0.00070288	0.37276
0.00070328	0.27265	0.00070328	0.37605
0.00070368	0.27103	0.00070368	0.38127
0.00070408	0.27292	0.00070408	0.38291
0.00070448	0.27184	0.00070448	0.38977
0.00070488	0.27157	0.00070488	0.39251
0.00070528	0.27238	0.00070528	0.39526
0.00070568	0.27265	0.00070568	0.3991
0.00070608	0.27021	0.00070608	0.40459
0.00070648	0.27184	0.00070648	0.40733
0.00070688	0.27157	0.00070688	0.41035
0.00070728	0.27211	0.00070728	0.41419
0.00070768	0.2713	0.00070768	0.41666
0.00070808	0.2713	0.00070808	0.42077
0.00070848	0.27184	0.00070848	0.42324
0.00070888	0.27292	0.00070888	0.42626
0.00070928	0.27265	0.00070928	0.43038
0.00070968	0.27157	0.00070968	0.43312
0.00071008	0.27184	0.00071008	0.43476
0.00071048	0.27319	0.00071048	0.43943
0.00071088	0.27211	0.00071088	0.44108
0.00071128	0.27238	0.00071128	0.44437
0.00071168	0.27238	0.00071168	0.44574
0.00071208	0.2713	0.00071208	0.45013
0.00071248	0.27184	0.00071248	0.45424
0.00071288	0.27211	0.00071288	0.45589
0.00071328	0.27292	0.00071328	0.45918
0.00071368	0.2713	0.00071368	0.46193
0.00071408	0.27292	0.00071408	0.46165
0.00071448	0.27265	0.00071448	0.46686
0.00071488	0.27292	0.00071488	0.47153
0.00071528	0.27319	0.00071528	0.47235
0.00071568	0.27292	0.00071568	0.474
0.00071608	0.27211	0.00071608	0.47647
0.00071648	0.27076	0.00071648	0.47811
0.00071688	0.27238	0.00071688	0.47811
0.00071728	0.27292	0.00071728	0.4847
0.00071768	0.27157	0.00071768	0.48552
0.00071808	0.27184	0.00071808	0.48854
0.00071848	0.27265	0.00071848	0.49156
0.00071888	0.2713	0.00071888	0.49348
0.00071928	0.27319	0.00071928	0.49732
0.00071968	0.27211	0.00071968	0.49924
0.00072008	0.27292	0.00072008	0.50226
0.00072048	0.27184	0.00072048	0.50555
0.00072088	0.27319	0.00072088	0.5061
0.00072128	0.27238	0.00072128	0.50774
0.00072168	0.27211	0.00072168	0.51241
0.00072208	0.27184	0.00072208	0.5135
0.00072248	0.27184	0.00072248	0.51542
0.00072288	0.274	0.00072288	0.51542
0.00072328	0.27265	0.00072328	0.51817
0.00072368	0.27157	0.00072368	0.51899
0.00072408	0.27265	0.00072408	0.52173
0.00072448	0.27292	0.00072448	0.52365
0.00072488	0.27265	0.00072488	0.52667
0.00072528	0.27292	0.00072528	0.52777
0.00072568	0.27265	0.00072568	0.52969
0.00072608	0.27157	0.00072608	0.53106
0.00072648	0.27184	0.00072648	0.53189
0.00072688	0.27346	0.00072688	0.53408
0.00072728	0.27211	0.00072728	0.53655
0.00072768	0.27265	0.00072768	0.53929
0.00072808	0.27292	0.00072808	0.54121
0.00072848	0.27103	0.00072848	0.54204
0.00072888	0.27238	0.00072888	0.54368
0.00072928	0.27265	0.00072928	0.5456
0.00072968	0.27265	0.00072968	0.54533
0.00073008	0.27319	0.00073008	0.54999
0.00073048	0.27211	0.00073048	0.54944
0.00073088	0.27265	0.00073088	0.55136
0.00073128	0.27346	0.00073128	0.55301
0.00073168	0.27157	0.00073168	0.55493
0.00073208	0.27211	0.00073208	0.55877
0.00073248	0.27482	0.00073248	0.55795
0.00073288	0.27157	0.00073288	0.55767
0.00073328	0.27346	0.00073328	0.55959
0.00073368	0.27265	0.00073368	0.56206
0.00073408	0.27265	0.00073408	0.56316
0.00073448	0.27373	0.00073448	0.56508
0.00073488	0.27211	0.00073488	0.56563
0.00073528	0.27346	0.00073528	0.56563
0.00073568	0.27346	0.00073568	0.56645
0.00073608	0.27346	0.00073608	0.56783
0.00073648	0.27427	0.00073648	0.56783
0.00073688	0.27292	0.00073688	0.57029
0.00073728	0.27319	0.00073728	0.57029
0.00073768	0.27373	0.00073768	0.57304
0.00073808	0.27319	0.00073808	0.57441
0.00073848	0.27265	0.00073848	0.57496
0.00073888	0.27373	0.00073888	0.57551
0.00073928	0.27319	0.00073928	0.57523
0.00073968	0.27292	0.00073968	0.5766
0.00074008	0.27211	0.00074008	0.5777
0.00074048	0.27319	0.00074048	0.5777
0.00074088	0.27455	0.00074088	0.57962
0.00074128	0.27373	0.00074128	0.5799
0.00074168	0.27319	0.00074168	0.58017
0.00074208	0.27509	0.00074208	0.58127
0.00074248	0.27211	0.00074248	0.58182
0.00074288	0.27536	0.00074288	0.58237
0.00074328	0.27346	0.00074328	0.58374
0.00074368	0.27373	0.00074368	0.58264
0.00074408	0.27373	0.00074408	0.58374
0.00074448	0.27455	0.00074448	0.58676
0.00074488	0.27373	0.00074488	0.58593
0.00074528	0.27346	0.00074528	0.58456
0.00074568	0.27292	0.00074568	0.58511
0.00074608	0.27427	0.00074608	0.58785
0.00074648	0.27346	0.00074648	0.58593
0.00074688	0.27455	0.00074688	0.58676
0.00074728	0.27482	0.00074728	0.58593
0.00074768	0.27373	0.00074768	0.58785
0.00074808	0.27509	0.00074808	0.58868
0.00074848	0.27346	0.00074848	0.58895
0.00074888	0.27346	0.00074888	0.58813
0.00074928	0.27536	0.00074928	0.58813
0.00074968	0.27346	0.00074968	0.58895
0.00075008	0.27373	0.00075008	0.59005
0.00075048	0.274	0.00075048	0.58785
0.00075088	0.27482	0.00075088	0.58813
0.00075128	0.27373	0.00075128	0.58922
0.00075168	0.27346	0.00075168	0.58785
0.00075208	0.27319	0.00075208	0.58895
0.00075248	0.27373	0.00075248	0.5884
0.00075288	0.27346	0.00075288	0.58758
0.00075328	0.27319	0.00075328	0.58868
0.00075368	0.274	0.00075368	0.5895
0.00075408	0.27482	0.00075408	0.58868
0.00075448	0.27455	0.00075448	0.5884
0.00075488	0.27536	0.00075488	0.58758
0.00075528	0.27373	0.00075528	0.5884
0.00075568	0.27427	0.00075568	0.58785
0.00075608	0.27563	0.00075608	0.58703
0.00075648	0.27455	0.00075648	0.58538
0.00075688	0.27455	0.00075688	0.58648
0.00075728	0.27509	0.00075728	0.5873
0.00075768	0.27509	0.00075768	0.58593
0.00075808	0.27509	0.00075808	0.58593
0.00075848	0.27617	0.00075848	0.58538
0.00075888	0.27482	0.00075888	0.58676
0.00075928	0.27427	0.00075928	0.58593
0.00075968	0.27455	0.00075968	0.58484
0.00076008	0.27509	0.00076008	0.58319
0.00076048	0.27455	0.00076048	0.58429
0.00076088	0.27536	0.00076088	0.58182
0.00076128	0.27563	0.00076128	0.58154
0.00076168	0.27563	0.00076168	0.58237
0.00076208	0.27563	0.00076208	0.58182
0.00076248	0.274	0.00076248	0.57798
0.00076288	0.27346	0.00076288	0.58045
0.00076328	0.27482	0.00076328	0.57853
0.00076368	0.27455	0.00076368	0.5777
0.00076408	0.27563	0.00076408	0.57962
0.00076448	0.27617	0.00076448	0.57551
0.00076488	0.274	0.00076488	0.57496
0.00076528	0.2759	0.00076528	0.57496
0.00076568	0.27455	0.00076568	0.57276
0.00076608	0.27455	0.00076608	0.57359
0.00076648	0.27563	0.00076648	0.57331
0.00076688	0.27509	0.00076688	0.57359
0.00076728	0.27455	0.00076728	0.57002
0.00076768	0.27482	0.00076768	0.57222
0.00076808	0.274	0.00076808	0.56783
0.00076848	0.27617	0.00076848	0.56755
0.00076888	0.27482	0.00076888	0.56837
0.00076928	0.27563	0.00076928	0.56508
0.00076968	0.27482	0.00076968	0.56426
0.00077008	0.27482	0.00077008	0.56371
0.00077048	0.27455	0.00077048	0.56124
0.00077088	0.27373	0.00077088	0.5585
0.00077128	0.27455	0.00077128	0.5585
0.00077168	0.27563	0.00077168	0.55905
0.00077208	0.27455	0.00077208	0.55658
0.00077248	0.2759	0.00077248	0.55438
0.00077288	0.274	0.00077288	0.55383
0.00077328	0.2759	0.00077328	0.55301
0.00077368	0.2759	0.00077368	0.55027
0.00077408	0.27536	0.00077408	0.55054
0.00077448	0.27617	0.00077448	0.54862
0.00077488	0.27644	0.00077488	0.54835
0.00077528	0.27563	0.00077528	0.54588
0.00077568	0.2759	0.00077568	0.54368
0.00077608	0.27455	0.00077608	0.54231
0.00077648	0.274	0.00077648	0.54121
0.00077688	0.27482	0.00077688	0.53792
0.00077728	0.27427	0.00077728	0.53847
0.00077768	0.27509	0.00077768	0.53737
0.00077808	0.27482	0.00077808	0.53518
0.00077848	0.274	0.00077848	0.53216
0.00077888	0.27644	0.00077888	0.53024
0.00077928	0.27509	0.00077928	0.52942
0.00077968	0.2759	0.00077968	0.52804
0.00078008	0.27644	0.00078008	0.52503
0.00078048	0.27644	0.00078048	0.52365
0.00078088	0.274	0.00078088	0.52365
0.00078128	0.27536	0.00078128	0.52064
0.00078168	0.27455	0.00078168	0.51872
0.00078208	0.27644	0.00078208	0.51652
0.00078248	0.27644	0.00078248	0.51405
0.00078288	0.27617	0.00078288	0.5135
0.00078328	0.27455	0.00078328	0.51103
0.00078368	0.27509	0.00078368	0.50802
0.00078408	0.27536	0.00078408	0.50802
0.00078448	0.27671	0.00078448	0.5039
0.00078488	0.27644	0.00078488	0.50308
0.00078528	0.27617	0.00078528	0.50088
0.00078568	0.27644	0.00078568	0.49841
0.00078608	0.27482	0.00078608	0.49595
0.00078648	0.27752	0.00078648	0.4932
0.00078688	0.27644	0.00078688	0.49156
0.00078728	0.27698	0.00078728	0.48826
0.00078768	0.27644	0.00078768	0.48717
0.00078808	0.27752	0.00078808	0.48525
0.00078848	0.27833	0.00078848	0.48278
0.00078888	0.27671	0.00078888	0.48031
0.00078928	0.27644	0.00078928	0.47702
0.00078968	0.27671	0.00078968	0.47564
0.00079008	0.27779	0.00079008	0.47208
0.00079048	0.27698	0.00079048	0.47016
0.00079088	0.27671	0.00079088	0.46878
0.00079128	0.27617	0.00079128	0.46604
0.00079168	0.27482	0.00079168	0.46302
0.00079208	0.27671	0.00079208	0.4611
0.00079248	0.2759	0.00079248	0.45726
0.00079288	0.27779	0.00079288	0.45479
0.00079328	0.27617	0.00079328	0.4537
0.00079368	0.27617	0.00079368	0.45205
0.00079408	0.27725	0.00079408	0.44958
0.00079448	0.27779	0.00079448	0.44574
0.00079488	0.27617	0.00079488	0.44354
0.00079528	0.27779	0.00079528	0.43861
0.00079568	0.27671	0.00079568	0.43751
0.00079608	0.27725	0.00079608	0.43559
0.00079648	0.27752	0.00079648	0.4323
0.00079688	0.27698	0.00079688	0.42873
0.00079728	0.27644	0.00079728	0.42626
0.00079768	0.27509	0.00079768	0.42379
0.00079808	0.27509	0.00079808	0.42077
0.00079848	0.27373	0.00079848	0.41748
0.00079888	0.27509	0.00079888	0.41446
0.00079928	0.27752	0.00079928	0.41364
0.00079968	0.27644	0.00079968	0.40733
0.00080008	0.27617	0.00080008	0.40733
0.00080048	0.27752	0.00080048	0.40376
0.00080088	0.27536	0.00080088	0.39965
0.00080128	0.27644	0.00080128	0.3969
0.00080168	0.27698	0.00080168	0.39334
0.00080208	0.2759	0.00080208	0.39032
0.00080248	0.27725	0.00080248	0.38895
0.00080288	0.2759	0.00080288	0.38346
0.00080328	0.27725	0.00080328	0.38044
0.00080368	0.2759	0.00080368	0.37523
0.00080408	0.27725	0.00080408	0.37249
0.00080448	0.27509	0.00080448	0.36919
0.00080488	0.27752	0.00080488	0.36673
0.00080528	0.27806	0.00080528	0.36316
0.00080568	0.27698	0.00080568	0.35822
0.00080608	0.27833	0.00080608	0.35603
0.00080648	0.27752	0.00080648	0.35219
0.00080688	0.27617	0.00080688	0.34697
0.00080728	0.27725	0.00080728	0.34313
0.00080768	0.27644	0.00080768	0.34066
0.00080808	0.27725	0.00080808	0.33764
0.00080848	0.27563	0.00080848	0.33325
0.00080888	0.27915	0.00080888	0.32969
0.00080928	0.27563	0.00080928	0.32777
0.00080968	0.27698	0.00080968	0.32091
0.00081008	0.27752	0.00081008	0.31405
0.00081048	0.27482	0.00081048	0.31076
0.00081088	0.27536	0.00081088	0.30856
0.00081128	0.27644	0.00081128	0.30445
0.00081168	0.27644	0.00081168	0.30033
0.00081208	0.27563	0.00081208	0.29677
0.00081248	0.27698	0.00081248	0.28991
0.00081288	0.27725	0.00081288	0.28689
0.00081328	0.27752	0.00081328	0.28085
0.00081368	0.27671	0.00081368	0.27537
0.00081408	0.27725	0.00081408	0.2718
0.00081448	0.27671	0.00081448	0.26823
0.00081488	0.27671	0.00081488	0.26412
0.00081528	0.27725	0.00081528	0.26028
0.00081568	0.27698	0.00081568	0.25561
0.00081608	0.27563	0.00081608	0.25095
0.00081648	0.27563	0.00081648	0.24656
0.00081688	0.27536	0.00081688	0.24217
0.00081728	0.27617	0.00081728	0.23888
0.00081768	0.27427	0.00081768	0.23559
0.00081808	0.2759	0.00081808	0.23367
0.00081848	0.27563	0.00081848	0.2279
0.00081888	0.27698	0.00081888	0.22489
0.00081928	0.27482	0.00081928	0.22132
0.00081968	0.2759	0.00081968	0.21995
0.00082008	0.27644	0.00082008	0.21556
0.00082048	0.27536	0.00082048	0.21391
0.00082088	0.27698	0.00082088	0.21062
0.00082128	0.27833	0.00082128	0.20952
0.00082168	0.27509	0.00082168	0.2065
0.00082208	0.27806	0.00082208	0.20541
0.00082248	0.27563	0.00082248	0.20157
0.00082288	0.27617	0.00082288	0.20157
0.00082328	0.27644	0.00082328	0.19992
0.00082368	0.27725	0.00082368	0.19855
0.00082408	0.27698	0.00082408	0.19745
0.00082448	0.27644	0.00082448	0.19745
0.00082488	0.27779	0.00082488	0.19498
0.00082528	0.27617	0.00082528	0.19635
0.00082568	0.27752	0.00082568	0.19553
0.00082608	0.27671	0.00082608	0.19498
0.00082648	0.27536	0.00082648	0.19224
0.00082688	0.27617	0.00082688	0.19388
0.00082728	0.27644	0.00082728	0.19306
0.00082768	0.27617	0.00082768	0.19306
0.00082808	0.27563	0.00082808	0.19196
0.00082848	0.2759	0.00082848	0.19114
0.00082888	0.27563	0.00082888	0.19114
0.00082928	0.27644	0.00082928	0.19196
0.00082968	0.27779	0.00082968	0.19142
0.00083008	0.27644	0.00083008	0.19169
0.00083048	0.27563	0.00083048	0.19142
0.00083088	0.2759	0.00083088	0.19334
0.00083128	0.27671	0.00083128	0.19251
0.00083168	0.27563	0.00083168	0.19142
0.00083208	0.27509	0.00083208	0.19169
0.00083248	0.27617	0.00083248	0.19142
0.00083288	0.2786	0.00083288	0.19196
0.00083328	0.27644	0.00083328	0.19334
0.00083368	0.27563	0.00083368	0.19361
0.00083408	0.27644	0.00083408	0.19416
0.00083448	0.27617	0.00083448	0.19471
0.00083488	0.27536	0.00083488	0.19334
0.00083528	0.27509	0.00083528	0.19361
0.00083568	0.27698	0.00083568	0.19306
0.00083608	0.27671	0.00083608	0.19498
0.00083648	0.27617	0.00083648	0.19526
0.00083688	0.27509	0.00083688	0.19498
0.00083728	0.27427	0.00083728	0.19471
0.00083768	0.27644	0.00083768	0.19827
0.00083808	0.27806	0.00083808	0.19553
0.00083848	0.27509	0.00083848	0.19498
0.00083888	0.27617	0.00083888	0.19773
0.00083928	0.27671	0.00083928	0.1969
0.00083968	0.27617	0.00083968	0.19718
0.00084008	0.27455	0.00084008	0.19745
0.00084048	0.27698	0.00084048	0.19827
0.00084088	0.27509	0.00084088	0.19882
0.00084128	0.27698	0.00084128	0.19882
0.00084168	0.27617	0.00084168	0.19965
0.00084208	0.27752	0.00084208	0.19827
0.00084248	0.27779	0.00084248	0.20019
0.00084288	0.27671	0.00084288	0.20184
0.00084328	0.27644	0.00084328	0.20102
0.00084368	0.27644	0.00084368	0.20129
0.00084408	0.27509	0.00084408	0.20102
0.00084448	0.27482	0.00084448	0.20239
0.00084488	0.27482	0.00084488	0.20266
0.00084528	0.27482	0.00084528	0.20321
0.00084568	0.27509	0.00084568	0.20513
0.00084608	0.27509	0.00084608	0.20431
0.00084648	0.27671	0.00084648	0.20623
0.00084688	0.27536	0.00084688	0.20842
0.00084728	0.2759	0.00084728	0.20925
0.00084768	0.27617	0.00084768	0.21336
0.00084808	0.27725	0.00084808	0.21254
0.00084848	0.27509	0.00084848	0.21364
0.00084888	0.27563	0.00084888	0.2183
0.00084928	0.2759	0.00084928	0.22077
0.00084968	0.2759	0.00084968	0.22461
0.00085008	0.27536	0.00085008	0.22708
0.00085048	0.27536	0.00085048	0.23037
0.00085088	0.27617	0.00085088	0.23586
0.00085128	0.27725	0.00085128	0.24162
0.00085168	0.27536	0.00085168	0.24299
0.00085208	0.27644	0.00085208	0.25013
0.00085248	0.27617	0.00085248	0.25342
0.00085288	0.27617	0.00085288	0.25726
0.00085328	0.27644	0.00085328	0.26247
0.00085368	0.27536	0.00085368	0.26714
0.00085408	0.2759	0.00085408	0.27098
0.00085448	0.27536	0.00085448	0.27454
0.00085488	0.27617	0.00085488	0.27921
0.00085528	0.27563	0.00085528	0.28223
0.00085568	0.27563	0.00085568	0.28579
0.00085608	0.27509	0.00085608	0.28826
0.00085648	0.2759	0.00085648	0.29238
0.00085688	0.27455	0.00085688	0.29402
0.00085728	0.27698	0.00085728	0.29677
0.00085768	0.2759	0.00085768	0.29869
0.00085808	0.27833	0.00085808	0.30033
0.00085848	0.27671	0.00085848	0.30225
0.00085888	0.27536	0.00085888	0.30335
0.00085928	0.27617	0.00085928	0.30362
0.00085968	0.2759	0.00085968	0.30362
0.00086008	0.27509	0.00086008	0.30664
0.00086048	0.27671	0.00086048	0.30911
0.00086088	0.27617	0.00086088	0.30829
0.00086128	0.27536	0.00086128	0.30829
0.00086168	0.27536	0.00086168	0.30884
0.00086208	0.27644	0.00086208	0.31048
0.00086248	0.2759	0.00086248	0.31131
0.00086288	0.27644	0.00086288	0.31268
0.00086328	0.2759	0.00086328	0.31378
0.00086368	0.27644	0.00086368	0.31295
0.00086408	0.27536	0.00086408	0.31131
0.00086448	0.2759	0.00086448	0.31405
0.00086488	0.27536	0.00086488	0.31405
0.00086528	0.27455	0.00086528	0.31432
0.00086568	0.27563	0.00086568	0.3124
0.00086608	0.27617	0.00086608	0.31487
0.00086648	0.2759	0.00086648	0.31295
0.00086688	0.27509	0.00086688	0.31323
0.00086728	0.2759	0.00086728	0.31378
0.00086768	0.27563	0.00086768	0.3135
0.00086808	0.27671	0.00086808	0.31432
0.00086848	0.27482	0.00086848	0.31186
0.00086888	0.27509	0.00086888	0.31268
0.00086928	0.2759	0.00086928	0.31323
0.00086968	0.27644	0.00086968	0.31295
0.00087008	0.27536	0.00087008	0.31432
0.00087048	0.2759	0.00087048	0.31295
0.00087088	0.27563	0.00087088	0.31213
0.00087128	0.27563	0.00087128	0.3124
0.00087168	0.2759	0.00087168	0.30911
0.00087208	0.27536	0.00087208	0.31158
0.00087248	0.27455	0.00087248	0.31048
0.00087288	0.27644	0.00087288	0.30966
0.00087328	0.27725	0.00087328	0.31158
0.00087368	0.27671	0.00087368	0.31131
0.00087408	0.2759	0.00087408	0.31021
0.00087448	0.27644	0.00087448	0.31131
0.00087488	0.27509	0.00087488	0.30939
0.00087528	0.2759	0.00087528	0.30747
0.00087568	0.27536	0.00087568	0.30911
0.00087608	0.27509	0.00087608	0.30747
0.00087648	0.2759	0.00087648	0.30774
0.00087688	0.27563	0.00087688	0.30747
0.00087728	0.2759	0.00087728	0.30527
0.00087768	0.27509	0.00087768	0.30445
0.00087808	0.27563	0.00087808	0.30527
0.00087848	0.27698	0.00087848	0.30308
0.00087888	0.2759	0.00087888	0.30116
0.00087928	0.27509	0.00087928	0.30116
0.00087968	0.27563	0.00087968	0.29978
0.00088008	0.27644	0.00088008	0.29841
0.00088048	0.27563	0.00088048	0.29622
0.00088088	0.27617	0.00088088	0.29649
0.00088128	0.27617	0.00088128	0.29512
0.00088168	0.2759	0.00088168	0.29046
0.00088208	0.27509	0.00088208	0.2921
0.00088248	0.27482	0.00088248	0.28771
0.00088288	0.27617	0.00088288	0.28771
0.00088328	0.27725	0.00088328	0.28607
0.00088368	0.27671	0.00088368	0.28662
0.00088408	0.27536	0.00088408	0.2836
0.00088448	0.27617	0.00088448	0.28195
0.00088488	0.27536	0.00088488	0.28195
0.00088528	0.27617	0.00088528	0.2836
0.00088568	0.27752	0.00088568	0.28469
0.00088608	0.27617	0.00088608	0.28607
0.00088648	0.27536	0.00088648	0.28826
0.00088688	0.27427	0.00088688	0.28854
0.00088728	0.27563	0.00088728	0.291
0.00088768	0.27698	0.00088768	0.29375
0.00088808	0.27536	0.00088808	0.29594
0.00088848	0.27563	0.00088848	0.29786
0.00088888	0.27617	0.00088888	0.29896
0.00088928	0.27644	0.00088928	0.30362
0.00088968	0.27536	0.00088968	0.30555
0.00089008	0.2759	0.00089008	0.30994
0.00089048	0.27617	0.00089048	0.31268
0.00089088	0.27536	0.00089088	0.31597
0.00089128	0.2759	0.00089128	0.31981
0.00089168	0.27455	0.00089168	0.3231
0.00089208	0.27563	0.00089208	0.32859
0.00089248	0.27563	0.00089248	0.32804
0.00089288	0.27671	0.00089288	0.33463
0.00089328	0.27644	0.00089328	0.33737
0.00089368	0.27617	0.00089368	0.33929
0.00089408	0.27644	0.00089408	0.34286
0.00089448	0.2759	0.00089448	0.34588
0.00089488	0.27509	0.00089488	0.3478
0.00089528	0.27536	0.00089528	0.35246
0.00089568	0.27482	0.00089568	0.35575
0.00089608	0.27482	0.00089608	0.36096
0.00089648	0.2759	0.00089648	0.36261
0.00089688	0.27725	0.00089688	0.36343
0.00089728	0.27644	0.00089728	0.36865
0.00089768	0.274	0.00089768	0.36919
0.00089808	0.2759	0.00089808	0.37386
0.00089848	0.27752	0.00089848	0.37715
0.00089888	0.27671	0.00089888	0.38017
0.00089928	0.27644	0.00089928	0.38319
0.00089968	0.27509	0.00089968	0.3873
0.00090008	0.2759	0.00090008	0.38922
0.00090048	0.2759	0.00090048	0.39306
0.00090088	0.27563	0.00090088	0.39471
0.00090128	0.27725	0.00090128	0.40047
0.00090168	0.27536	0.00090168	0.40129
0.00090208	0.27617	0.00090208	0.40541
0.00090248	0.27509	0.00090248	0.40623
0.00090288	0.27536	0.00090288	0.41007
0.00090328	0.27536	0.00090328	0.41309
0.00090368	0.274	0.00090368	0.41556
0.00090408	0.27509	0.00090408	0.41803
0.00090448	0.27509	0.00090448	0.42187
0.00090488	0.27482	0.00090488	0.42489
0.00090528	0.27455	0.00090528	0.42571
0.00090568	0.27509	0.00090568	0.42763
0.00090608	0.27617	0.00090608	0.43257
0.00090648	0.27644	0.00090648	0.43312
0.00090688	0.27509	0.00090688	0.43559
0.00090728	0.2759	0.00090728	0.4397
0.00090768	0.27617	0.00090768	0.4408
0.00090808	0.27455	0.00090808	0.44464
0.00090848	0.2759	0.00090848	0.44327
0.00090888	0.27698	0.00090888	0.44931
0.00090928	0.27617	0.00090928	0.44985
0.00090968	0.27671	0.00090968	0.45479
0.00091008	0.27617	0.00091008	0.45754
0.00091048	0.27833	0.00091048	0.45836
0.00091088	0.27752	0.00091088	0.46001
0.00091128	0.2759	0.00091128	0.4622
0.00091168	0.2759	0.00091168	0.46604
0.00091208	0.27779	0.00091208	0.46632
0.00091248	0.27671	0.00091248	0.4718
0.00091288	0.27752	0.00091288	0.4729
0.00091328	0.27617	0.00091328	0.47427
0.00091368	0.27644	0.00091368	0.47948
0.00091408	0.27455	0.00091408	0.47921
0.00091448	0.2759	0.00091448	0.48278
0.00091488	0.27563	0.00091488	0.48333
0.00091528	0.27617	0.00091528	0.48525
0.00091568	0.27725	0.00091568	0.48744
0.00091608	0.27644	0.00091608	0.48964
0.00091648	0.27427	0.00091648	0.49265
0.00091688	0.27698	0.00091688	0.4943
0.00091728	0.27644	0.00091728	0.49649
0.00091768	0.27617	0.00091768	0.50088
0.00091808	0.27752	0.00091808	0.50143
0.00091848	0.27806	0.00091848	0.50363
0.00091888	0.27725	0.00091888	0.50472
0.00091928	0.27563	0.00091928	0.50582
0.00091968	0.27752	0.00091968	0.50884
0.00092008	0.27509	0.00092008	0.50966
0.00092048	0.27725	0.00092048	0.51103
0.00092088	0.2759	0.00092088	0.51433
0.00092128	0.27536	0.00092128	0.51405
0.00092168	0.27725	0.00092168	0.51488
0.00092208	0.27698	0.00092208	0.51844
0.00092248	0.27644	0.00092248	0.51872
0.00092288	0.27617	0.00092288	0.52064
0.00092328	0.27671	0.00092328	0.52311
0.00092368	0.27698	0.00092368	0.52585
0.00092408	0.27671	0.00092408	0.52667
0.00092448	0.27833	0.00092448	0.52558
0.00092488	0.27644	0.00092488	0.52914
0.00092528	0.2759	0.00092528	0.53189
0.00092568	0.27833	0.00092568	0.53243
0.00092608	0.27725	0.00092608	0.53435
0.00092648	0.27644	0.00092648	0.53682
0.00092688	0.27617	0.00092688	0.53737
0.00092728	0.27644	0.00092728	0.5382
0.00092768	0.27671	0.00092768	0.54121
0.00092808	0.27806	0.00092808	0.54313
0.00092848	0.27752	0.00092848	0.54368
0.00092888	0.27536	0.00092888	0.54588
0.00092928	0.2759	0.00092928	0.54588
0.00092968	0.27698	0.00092968	0.54862
0.00093008	0.27752	0.00093008	0.54862
0.00093048	0.27563	0.00093048	0.55027
0.00093088	0.27644	0.00093088	0.54944
0.00093128	0.27617	0.00093128	0.55191
0.00093168	0.27752	0.00093168	0.55301
0.00093208	0.27671	0.00093208	0.55328
0.00093248	0.27671	0.00093248	0.55356
0.00093288	0.27725	0.00093288	0.55575
0.00093328	0.27752	0.00093328	0.5563
0.00093368	0.27806	0.00093368	0.55795
0.00093408	0.27671	0.00093408	0.55987
0.00093448	0.27725	0.00093448	0.56042
0.00093488	0.27698	0.00093488	0.56179
0.00093528	0.27644	0.00093528	0.56234
0.00093568	0.27725	0.00093568	0.56453
0.00093608	0.27806	0.00093608	0.56234
0.00093648	0.27779	0.00093648	0.56316
0.00093688	0.27779	0.00093688	0.56645
0.00093728	0.27725	0.00093728	0.56453
0.00093768	0.27509	0.00093768	0.56728
0.00093808	0.27833	0.00093808	0.5681
0.00093848	0.27779	0.00093848	0.56783
0.00093888	0.27915	0.00093888	0.56865
0.00093928	0.27725	0.00093928	0.5681
0.00093968	0.27671	0.00093968	0.57029
0.00094008	0.27725	0.00094008	0.56947
0.00094048	0.27779	0.00094048	0.57304
0.00094088	0.27833	0.00094088	0.57222
0.00094128	0.27671	0.00094128	0.57194
0.00094168	0.27725	0.00094168	0.57414
0.00094208	0.27644	0.00094208	0.57276
0.00094248	0.27833	0.00094248	0.57276
0.00094288	0.27752	0.00094288	0.57578
0.00094328	0.27806	0.00094328	0.57441
0.00094368	0.27888	0.00094368	0.57551
0.00094408	0.27698	0.00094408	0.57578
0.00094448	0.27806	0.00094448	0.57523
0.00094488	0.27806	0.00094488	0.5766
0.00094528	0.27644	0.00094528	0.57468
0.00094568	0.27915	0.00094568	0.57606
0.00094608	0.27698	0.00094608	0.57853
0.00094648	0.27779	0.00094648	0.57688
0.00094688	0.27725	0.00094688	0.57688
0.00094728	0.27806	0.00094728	0.57688
0.00094768	0.2786	0.00094768	0.57715
0.00094808	0.27779	0.00094808	0.57633
0.00094848	0.27806	0.00094848	0.57743
0.00094888	0.27833	0.00094888	0.57606
0.00094928	0.27806	0.00094928	0.5777
0.00094968	0.27833	0.00094968	0.5766
0.00095008	0.27806	0.00095008	0.57688
0.00095048	0.27915	0.00095048	0.57578
0.00095088	0.2786	0.00095088	0.57853
0.00095128	0.27752	0.00095128	0.57688
0.00095168	0.27833	0.00095168	0.57551
0.00095208	0.2786	0.00095208	0.5766
0.00095248	0.2786	0.00095248	0.57441
0.00095288	0.27779	0.00095288	0.57578
0.00095328	0.27806	0.00095328	0.57551
0.00095368	0.27833	0.00095368	0.57468
0.00095408	0.27752	0.00095408	0.57331
0.00095448	0.27969	0.00095448	0.57496
0.00095488	0.27833	0.00095488	0.57386
0.00095528	0.27806	0.00095528	0.57222
0.00095568	0.27833	0.00095568	0.57359
0.00095608	0.27833	0.00095608	0.57029
0.00095648	0.27806	0.00095648	0.57167
0.00095688	0.27698	0.00095688	0.57057
0.00095728	0.27617	0.00095728	0.57139
0.00095768	0.27779	0.00095768	0.56975
0.00095808	0.27779	0.00095808	0.56892
0.00095848	0.27915	0.00095848	0.5681
0.00095888	0.2786	0.00095888	0.56783
0.00095928	0.27888	0.00095928	0.5681
0.00095968	0.27833	0.00095968	0.5659
0.00096008	0.27806	0.00096008	0.56481
0.00096048	0.27942	0.00096048	0.56453
0.00096088	0.27942	0.00096088	0.56371
0.00096128	0.27698	0.00096128	0.56179
0.00096168	0.2786	0.00096168	0.56316
0.00096208	0.27806	0.00096208	0.56152
0.00096248	0.27942	0.00096248	0.55987
0.00096288	0.27888	0.00096288	0.55877
0.00096328	0.2805	0.00096328	0.55767
0.00096368	0.27888	0.00096368	0.55905
0.00096408	0.27942	0.00096408	0.55603
0.00096448	0.27888	0.00096448	0.5563
0.00096488	0.27833	0.00096488	0.55411
0.00096528	0.27888	0.00096528	0.55411
0.00096568	0.27806	0.00096568	0.55246
0.00096608	0.2786	0.00096608	0.55109
0.00096648	0.27969	0.00096648	0.54807
0.00096688	0.27969	0.00096688	0.54944
0.00096728	0.2786	0.00096728	0.5467
0.00096768	0.27915	0.00096768	0.54615
0.00096808	0.27942	0.00096808	0.54533
0.00096848	0.27915	0.00096848	0.54313
0.00096888	0.27779	0.00096888	0.54368
0.00096928	0.27833	0.00096928	0.54094
0.00096968	0.27888	0.00096968	0.53792
0.00097008	0.27942	0.00097008	0.5382
0.00097048	0.28023	0.00097048	0.53627
0.00097088	0.27888	0.00097088	0.53381
0.00097128	0.27942	0.00097128	0.53243
0.00097168	0.27969	0.00097168	0.53161
0.00097208	0.2786	0.00097208	0.53106
0.00097248	0.27888	0.00097248	0.52859
0.00097288	0.27996	0.00097288	0.52503
0.00097328	0.27888	0.00097328	0.52393
0.00097368	0.27915	0.00097368	0.52228
0.00097408	0.2786	0.00097408	0.52036
0.00097448	0.27806	0.00097448	0.51844
0.00097488	0.27942	0.00097488	0.51899
0.00097528	0.27779	0.00097528	0.5157
0.00097568	0.27833	0.00097568	0.5146
0.00097608	0.27969	0.00097608	0.51186
0.00097648	0.27915	0.00097648	0.50966
0.00097688	0.27915	0.00097688	0.50774
0.00097728	0.27888	0.00097728	0.50527
0.00097768	0.27969	0.00097768	0.505
0.00097808	0.27942	0.00097808	0.50116
0.00097848	0.27888	0.00097848	0.50061
0.00097888	0.28212	0.00097888	0.49896
0.00097928	0.2805	0.00097928	0.49704
0.00097968	0.28077	0.00097968	0.49156
0.00098008	0.28023	0.00098008	0.49293
0.00098048	0.2786	0.00098048	0.48854
0.00098088	0.27942	0.00098088	0.48607
0.00098128	0.27969	0.00098128	0.48415
0.00098168	0.28077	0.00098168	0.48086
0.00098208	0.28023	0.00098208	0.48031
0.00098248	0.28104	0.00098248	0.47647
0.00098288	0.27969	0.00098288	0.474
0.00098328	0.27888	0.00098328	0.47208
0.00098368	0.27996	0.00098368	0.4707
0.00098408	0.27942	0.00098408	0.46632
0.00098448	0.27833	0.00098448	0.46439
0.00098488	0.27969	0.00098488	0.46193
0.00098528	0.27969	0.00098528	0.45918
0.00098568	0.27996	0.00098568	0.45836
0.00098608	0.28023	0.00098608	0.45342
0.00098648	0.27833	0.00098648	0.45177
0.00098688	0.28023	0.00098688	0.44793
0.00098728	0.27806	0.00098728	0.44848
0.00098768	0.2805	0.00098768	0.44409
0.00098808	0.27996	0.00098808	0.43943
0.00098848	0.28023	0.00098848	0.43888
0.00098888	0.27942	0.00098888	0.43476
0.00098928	0.27915	0.00098928	0.43147
0.00098968	0.27942	0.00098968	0.42845
0.00099008	0.28077	0.00099008	0.42379
0.00099048	0.27969	0.00099048	0.42105
0.00099088	0.28104	0.00099088	0.41913
0.00099128	0.27969	0.00099128	0.41501
0.00099168	0.27969	0.00099168	0.41309
0.00099208	0.27942	0.00099208	0.40898
0.00099248	0.28077	0.00099248	0.40623
0.00099288	0.27996	0.00099288	0.40431
0.00099328	0.28104	0.00099328	0.39965
0.00099368	0.27969	0.00099368	0.39526
0.00099408	0.2805	0.00099408	0.39059
0.00099448	0.27942	0.00099448	0.38867
0.00099488	0.28077	0.00099488	0.38319
0.00099528	0.27915	0.00099528	0.37852
0.00099568	0.27888	0.00099568	0.37715
0.00099608	0.27915	0.00099608	0.37112
0.00099648	0.28104	0.00099648	0.36974
0.00099688	0.28104	0.00099688	0.36453
0.00099728	0.27942	0.00099728	0.36151
0.00099768	0.2805	0.00099768	0.35657
0.00099808	0.27833	0.00099808	0.35328
0.00099848	0.28077	0.00099848	0.34917
0.00099888	0.27996	0.00099888	0.3456
0.00099928	0.27833	0.00099928	0.34203
0.00099968	0.28158	0.00099968	0.33463
0.00100008	0.28104	0.00100008	0.33325
0.00100048	0.27915	0.00100048	0.32941
0.00100088	0.28077	0.00100088	0.32283
0.00100128	0.27969	0.00100128	0.31817
0.00100168	0.27942	0.00100168	0.31186
0.00100208	0.27969	0.00100208	0.30884
0.00100248	0.27996	0.00100248	0.30472
0.00100288	0.27969	0.00100288	0.29786
0.00100328	0.28023	0.00100328	0.29155
0.00100368	0.27942	0.00100368	0.28771
0.00100408	0.27942	0.00100408	0.28223
0.00100448	0.28077	0.00100448	0.27838
0.00100488	0.27779	0.00100488	0.27207
0.00100528	0.28158	0.00100528	0.26522
0.00100568	0.28023	0.00100568	0.26165
0.00100608	0.27888	0.00100608	0.25506
0.00100648	0.2805	0.00100648	0.25095
0.00100688	0.28023	0.00100688	0.24382
0.00100728	0.28131	0.00100728	0.23805
0.00100768	0.27969	0.00100768	0.23229
0.00100808	0.27996	0.00100808	0.22379
0.00100848	0.27996	0.00100848	0.21748
0.00100888	0.27969	0.00100888	0.21089
0.00100928	0.28077	0.00100928	0.20541
0.00100968	0.27969	0.00100968	0.19827
0.00101008	0.2805	0.00101008	0.19032
0.00101048	0.28185	0.00101048	0.18264
0.00101088	0.27915	0.00101088	0.17742
0.00101128	0.28131	0.00101128	0.16755
0.00101168	0.27942	0.00101168	0.16179
0.00101208	0.27888	0.00101208	0.15383
0.00101248	0.27915	0.00101248	0.1456
0.00101288	0.27942	0.00101288	0.13819
0.00101328	0.28023	0.00101328	0.12914
0.00101368	0.28131	0.00101368	0.12091
0.00101408	0.28023	0.00101408	0.1146
0.00101448	0.27942	0.00101448	0.10691
0.00101488	0.27969	0.00101488	0.09622
0.00101528	0.27969	0.00101528	0.08552
0.00101568	0.27996	0.00101568	0.0803
0.00101608	0.27996	0.00101608	0.0696
0.00101648	0.2786	0.00101648	0.0589
0.00101688	0.27915	0.00101688	0.05232
0.00101728	0.27806	0.00101728	0.04244
0.00101768	0.27996	0.00101768	0.03257
0.00101808	0.2786	0.00101808	0.02488
0.00101848	0.27888	0.00101848	0.01501
0.00101888	0.27806	0.00101888	0.00403
0.00101928	0.27915	0.00101928	-0.002
0.00101968	0.27996	0.00101968	-0.01215
0.00102008	0.27969	0.00102008	-0.02176
0.00102048	0.27833	0.00102048	-0.02971
0.00102088	0.28077	0.00102088	-0.03794
0.00102128	0.2786	0.00102128	-0.04837
0.00102168	0.27833	0.00102168	-0.0566
0.00102208	0.27888	0.00102208	-0.06428
0.00102248	0.27888	0.00102248	-0.07251
0.00102288	0.27969	0.00102288	-0.08129
0.00102328	0.27969	0.00102328	-0.08787
0.00102368	0.27888	0.00102368	-0.09556
0.00102408	0.27888	0.00102408	-0.10461
0.00102448	0.27969	0.00102448	-0.11065
0.00102488	0.2786	0.00102488	-0.12025
0.00102528	0.27942	0.00102528	-0.12409
0.00102568	0.27969	0.00102568	-0.1293
0.00102608	0.27833	0.00102608	-0.13589
0.00102648	0.27833	0.00102648	-0.14165
0.00102688	0.27752	0.00102688	-0.14686
0.00102728	0.27888	0.00102728	-0.15317
0.00102768	0.27969	0.00102768	-0.15482
0.00102808	0.27915	0.00102808	-0.1603
0.00102848	0.27806	0.00102848	-0.16387
0.00102888	0.2786	0.00102888	-0.16799
0.00102928	0.2786	0.00102928	-0.1732
0.00102968	0.2786	0.00102968	-0.17759
0.00103008	0.27752	0.00103008	-0.18006
0.00103048	0.27806	0.00103048	-0.18253
0.00103088	0.27644	0.00103088	-0.1839
0.00103128	0.27698	0.00103128	-0.18856
0.00103168	0.27752	0.00103168	-0.19158
0.00103208	0.27915	0.00103208	-0.19323
0.00103248	0.27779	0.00103248	-0.19597
0.00103288	0.27833	0.00103288	-0.19707
0.00103328	0.27644	0.00103328	-0.20091
0.00103368	0.2786	0.00103368	-0.20118
0.00103408	0.27806	0.00103408	-0.20557
0.00103448	0.27617	0.00103448	-0.20639
0.00103488	0.27833	0.00103488	-0.20886
0.00103528	0.27915	0.00103528	-0.21243
0.00103568	0.27671	0.00103568	-0.21078
0.00103608	0.27752	0.00103608	-0.21353
0.00103648	0.27833	0.00103648	-0.21655
0.00103688	0.2786	0.00103688	-0.216
0.00103728	0.27725	0.00103728	-0.21709
0.00103768	0.27806	0.00103768	-0.21874
0.00103808	0.27779	0.00103808	-0.21929
0.00103848	0.27779	0.00103848	-0.22094
0.00103888	0.27752	0.00103888	-0.22286
0.00103928	0.27806	0.00103928	-0.2245
0.00103968	0.27644	0.00103968	-0.2245
0.00104008	0.27806	0.00104008	-0.22587
0.00104048	0.27752	0.00104048	-0.22752
0.00104088	0.27509	0.00104088	-0.22697
0.00104128	0.2786	0.00104128	-0.23054
0.00104168	0.27725	0.00104168	-0.22944
0.00104208	0.27698	0.00104208	-0.23054
0.00104248	0.27752	0.00104248	-0.23301
0.00104288	0.27752	0.00104288	-0.2352
0.00104328	0.27644	0.00104328	-0.2341
0.00104368	0.27644	0.00104368	-0.23575
0.00104408	0.27806	0.00104408	-0.23438
0.00104448	0.27725	0.00104448	-0.2352
0.00104488	0.27617	0.00104488	-0.23712
0.00104528	0.27644	0.00104528	-0.23987
0.00104568	0.2786	0.00104568	-0.24179
0.00104608	0.27725	0.00104608	-0.24343
0.00104648	0.27509	0.00104648	-0.24563
0.00104688	0.27752	0.00104688	-0.24508
0.00104728	0.27752	0.00104728	-0.24864
0.00104768	0.27833	0.00104768	-0.25166
0.00104808	0.27779	0.00104808	-0.25605
0.00104848	0.2759	0.00104848	-0.25797
0.00104888	0.27644	0.00104888	-0.26209
0.00104928	0.2759	0.00104928	-0.26648
0.00104968	0.27617	0.00104968	-0.26922
0.00105008	0.2759	0.00105008	-0.27553
0.00105048	0.2759	0.00105048	-0.27965
0.00105088	0.27671	0.00105088	-0.28486
0.00105128	0.2759	0.00105128	-0.28623
0.00105168	0.2759	0.00105168	-0.28925
0.00105208	0.27671	0.00105208	-0.29336
0.00105248	0.2759	0.00105248	-0.29638
0.00105288	0.2759	0.00105288	-0.29967
0.00105328	0.27509	0.00105328	-0.30242
0.00105368	0.27644	0.00105368	-0.30681
0.00105408	0.2759	0.00105408	-0.30708
0.00105448	0.2759	0.00105448	-0.31065
0.00105488	0.27644	0.00105488	-0.31257
0.00105528	0.27482	0.00105528	-0.31394
0.00105568	0.27536	0.00105568	-0.31614
0.00105608	0.2759	0.00105608	-0.31668
0.00105648	0.27617	0.00105648	-0.31888
0.00105688	0.27617	0.00105688	-0.32025
0.00105728	0.27482	0.00105728	-0.31943
0.00105768	0.27563	0.00105768	-0.32162
0.00105808	0.27509	0.00105808	-0.3219
0.00105848	0.27427	0.00105848	-0.32299
0.00105888	0.27617	0.00105888	-0.32327
0.00105928	0.27536	0.00105928	-0.32574
0.00105968	0.27509	0.00105968	-0.32437
0.00106008	0.2759	0.00106008	-0.32491
0.00106048	0.27509	0.00106048	-0.32491
0.00106088	0.27373	0.00106088	-0.32683
0.00106128	0.274	0.00106128	-0.32738
0.00106168	0.27455	0.00106168	-0.32601
0.00106208	0.27455	0.00106208	-0.32766
0.00106248	0.274	0.00106248	-0.32958
0.00106288	0.27455	0.00106288	-0.32958
0.00106328	0.27455	0.00106328	-0.32766
0.00106368	0.27319	0.00106368	-0.32985
0.00106408	0.27373	0.00106408	-0.32848
0.00106448	0.27482	0.00106448	-0.3293
0.00106488	0.27346	0.00106488	-0.32766
0.00106528	0.27373	0.00106528	-0.32656
0.00106568	0.27373	0.00106568	-0.32766
0.00106608	0.27455	0.00106608	-0.32821
0.00106648	0.27373	0.00106648	-0.32711
0.00106688	0.274	0.00106688	-0.32601
0.00106728	0.27265	0.00106728	-0.32876
0.00106768	0.27427	0.00106768	-0.32656
0.00106808	0.27509	0.00106808	-0.32766
0.00106848	0.27346	0.00106848	-0.32464
0.00106888	0.27265	0.00106888	-0.32437
0.00106928	0.27292	0.00106928	-0.32409
0.00106968	0.27238	0.00106968	-0.32299
0.00107008	0.27455	0.00107008	-0.32245
0.00107048	0.27427	0.00107048	-0.3208
0.00107088	0.27265	0.00107088	-0.32327
0.00107128	0.27157	0.00107128	-0.31943
0.00107168	0.27346	0.00107168	-0.31723
0.00107208	0.27319	0.00107208	-0.31421
0.00107248	0.27319	0.00107248	-0.31147
0.00107288	0.27319	0.00107288	-0.30763
0.00107328	0.27427	0.00107328	-0.30214
0.00107368	0.27184	0.00107368	-0.29748
0.00107408	0.27292	0.00107408	-0.29419
0.00107448	0.27211	0.00107448	-0.28705
0.00107488	0.27292	0.00107488	-0.28074
0.00107528	0.27373	0.00107528	-0.27773
0.00107568	0.27482	0.00107568	-0.26867
0.00107608	0.27265	0.00107608	-0.26154
0.00107648	0.27292	0.00107648	-0.25358
0.00107688	0.27292	0.00107688	-0.24398
0.00107728	0.27292	0.00107728	-0.2341
0.00107768	0.27211	0.00107768	-0.2256
0.00107808	0.27238	0.00107808	-0.21627
0.00107848	0.27211	0.00107848	-0.20722
0.00107888	0.27157	0.00107888	-0.19597
0.00107928	0.27265	0.00107928	-0.18719
0.00107968	0.27292	0.00107968	-0.17676
0.00108008	0.27292	0.00108008	-0.16497
0.00108048	0.27184	0.00108048	-0.15317
0.00108088	0.27238	0.00108088	-0.14192
0.00108128	0.27184	0.00108128	-0.13205
0.00108168	0.27292	0.00108168	-0.1197
0.00108208	0.27319	0.00108208	-0.10845
0.00108248	0.27157	0.00108248	-0.09638
0.00108288	0.27238	0.00108288	-0.08376
0.00108328	0.27157	0.00108328	-0.07059
0.00108368	0.27184	0.00108368	-0.06017
0.00108408	0.27265	0.00108408	-0.04837
0.00108448	0.27184	0.00108448	-0.0341
0.00108488	0.27184	0.00108488	-0.02313
0.00108528	0.27103	0.00108528	-0.0116
0.00108568	0.27049	0.00108568	0.00211
0.00108608	0.27021	0.00108608	0.01309
0.00108648	0.27292	0.00108648	0.02708
0.00108688	0.27211	0.00108688	0.03805
0.00108728	0.26967	0.00108728	0.05067
0.00108768	0.27076	0.00108768	0.06329
0.00108808	0.27319	0.00108808	0.07536
0.00108848	0.27292	0.00108848	0.08881
0.00108888	0.2713	0.00108888	0.10143
0.00108928	0.2713	0.00108928	0.11405
0.00108968	0.27103	0.00108968	0.12612
0.00109008	0.27211	0.00109008	0.13819
0.00109048	0.27184	0.00109048	0.14917
0.00109088	0.27319	0.00109088	0.16179
0.00109128	0.2713	0.00109128	0.17331
0.00109168	0.27076	0.00109168	0.18565
0.00109208	0.27184	0.00109208	0.19526
0.00109248	0.27157	0.00109248	0.20486
0.00109288	0.27103	0.00109288	0.21666
0.00109328	0.2713	0.00109328	0.22845
0.00109368	0.27076	0.00109368	0.23888
0.00109408	0.27076	0.00109408	0.24629
0.00109448	0.27157	0.00109448	0.25644
0.00109488	0.27184	0.00109488	0.2633
0.00109528	0.27265	0.00109528	0.2729
0.00109568	0.27238	0.00109568	0.27948
0.00109608	0.27265	0.00109608	0.28552
0.00109648	0.27292	0.00109648	0.29155
0.00109688	0.27184	0.00109688	0.29978
0.00109728	0.27157	0.00109728	0.30555
0.00109768	0.27157	0.00109768	0.3124
0.00109808	0.27211	0.00109808	0.31707
0.00109848	0.27211	0.00109848	0.32256
0.00109888	0.27049	0.00109888	0.32969
0.00109928	0.2713	0.00109928	0.33243
0.00109968	0.27346	0.00109968	0.33764
0.00110008	0.27346	0.00110008	0.34231
0.00110048	0.27292	0.00110048	0.34642
0.00110088	0.27211	0.00110088	0.35081
0.00110128	0.27292	0.00110128	0.35465
0.00110168	0.27157	0.00110168	0.36014
0.00110208	0.27103	0.00110208	0.36261
0.00110248	0.27319	0.00110248	0.36919
0.00110288	0.27211	0.00110288	0.37194
0.00110328	0.27184	0.00110328	0.3766
0.00110368	0.27184	0.00110368	0.38127
0.00110408	0.2713	0.00110408	0.38456
0.00110448	0.27319	0.00110448	0.3895
0.00110488	0.27211	0.00110488	0.39059
0.00110528	0.27292	0.00110528	0.39444
0.00110568	0.27184	0.00110568	0.39745
0.00110608	0.27157	0.00110608	0.40212
0.00110648	0.27238	0.00110648	0.40513
0.00110688	0.26994	0.00110688	0.41035
0.00110728	0.27076	0.00110728	0.41309
0.00110768	0.27238	0.00110768	0.41721
0.00110808	0.27049	0.00110808	0.41885
0.00110848	0.2713	0.00110848	0.42352
0.00110888	0.27184	0.00110888	0.42818
0.00110928	0.27184	0.00110928	0.42928
0.00110968	0.27319	0.00110968	0.43147
0.00111008	0.27238	0.00111008	0.43531
0.00111048	0.27184	0.00111048	0.43833
0.00111088	0.27211	0.00111088	0.443
0.00111128	0.27265	0.00111128	0.44519
0.00111168	0.27103	0.00111168	0.44656
0.00111208	0.27373	0.00111208	0.44958
0.00111248	0.27211	0.00111248	0.45205
0.00111288	0.27265	0.00111288	0.45562
0.00111328	0.27238	0.00111328	0.45836
0.00111368	0.27184	0.00111368	0.46275
0.00111408	0.27238	0.00111408	0.46193
0.00111448	0.27021	0.00111448	0.46714
0.00111488	0.27292	0.00111488	0.46906
0.00111528	0.27157	0.00111528	0.4718
0.00111568	0.27184	0.00111568	0.47592
0.00111608	0.27292	0.00111608	0.47647
0.00111648	0.27021	0.00111648	0.47811
0.00111688	0.27238	0.00111688	0.48086
0.00111728	0.27157	0.00111728	0.48607
0.00111768	0.27184	0.00111768	0.48607
0.00111808	0.27211	0.00111808	0.49128
0.00111848	0.2713	0.00111848	0.49238
0.00111888	0.2713	0.00111888	0.49595
0.00111928	0.27319	0.00111928	0.49649
0.00111968	0.27427	0.00111968	0.49951
0.00112008	0.2713	0.00112008	0.50527
0.00112048	0.27157	0.00112048	0.5039
0.00112088	0.27211	0.00112088	0.50555
0.00112128	0.27265	0.00112128	0.51021
0.00112168	0.27319	0.00112168	0.51241
0.00112208	0.27292	0.00112208	0.51515
0.00112248	0.27265	0.00112248	0.51488
0.00112288	0.27103	0.00112288	0.51597
0.00112328	0.27184	0.00112328	0.51817
0.00112368	0.27211	0.00112368	0.52119
0.00112408	0.27184	0.00112408	0.52338
0.00112448	0.27319	0.00112448	0.52365
0.00112488	0.27292	0.00112488	0.52695
0.00112528	0.27238	0.00112528	0.52777
0.00112568	0.27292	0.00112568	0.52996
0.00112608	0.27184	0.00112608	0.53189
0.00112648	0.27292	0.00112648	0.53271
0.00112688	0.27292	0.00112688	0.53545
0.00112728	0.27319	0.00112728	0.53381
0.00112768	0.27427	0.00112768	0.53874
0.00112808	0.27292	0.00112808	0.54066
0.00112848	0.27184	0.00112848	0.54204
0.00112888	0.27211	0.00112888	0.54505
0.00112928	0.27373	0.00112928	0.54615
0.00112968	0.27292	0.00112968	0.54752
0.00113008	0.27292	0.00113008	0.55054
0.00113048	0.27265	0.00113048	0.54999
0.00113088	0.27211	0.00113088	0.55027
0.00113128	0.27184	0.00113128	0.55246
0.00113168	0.27021	0.00113168	0.55383
0.00113208	0.27184	0.00113208	0.5574
0.00113248	0.274	0.00113248	0.5574
0.00113288	0.27265	0.00113288	0.55932
0.00113328	0.27265	0.00113328	0.55932
0.00113368	0.27319	0.00113368	0.56206
0.00113408	0.27319	0.00113408	0.56344
0.00113448	0.27319	0.00113448	0.56508
0.00113488	0.27346	0.00113488	0.56453
0.00113528	0.27427	0.00113528	0.567
0.00113568	0.27346	0.00113568	0.56837
0.00113608	0.274	0.00113608	0.56783
0.00113648	0.27319	0.00113648	0.56837
0.00113688	0.27346	0.00113688	0.56975
0.00113728	0.27373	0.00113728	0.57112
0.00113768	0.27482	0.00113768	0.57112
0.00113808	0.27482	0.00113808	0.57331
0.00113848	0.27265	0.00113848	0.57523
0.00113888	0.27319	0.00113888	0.57551
0.00113928	0.27536	0.00113928	0.57633
0.00113968	0.27346	0.00113968	0.5777
0.00114008	0.27427	0.00114008	0.57688
0.00114048	0.27427	0.00114048	0.57688
0.00114088	0.27103	0.00114088	0.57853
0.00114128	0.27265	0.00114128	0.58017
0.00114168	0.27427	0.00114168	0.58127
0.00114208	0.27319	0.00114208	0.58319
0.00114248	0.274	0.00114248	0.58374
0.00114288	0.27427	0.00114288	0.58291
0.00114328	0.27373	0.00114328	0.58456
0.00114368	0.27346	0.00114368	0.58374
0.00114408	0.27238	0.00114408	0.58456
0.00114448	0.27427	0.00114448	0.58319
0.00114488	0.274	0.00114488	0.58511
0.00114528	0.27292	0.00114528	0.58538
0.00114568	0.27427	0.00114568	0.58621
0.00114608	0.27346	0.00114608	0.58648
0.00114648	0.27455	0.00114648	0.58538
0.00114688	0.27427	0.00114688	0.5873
0.00114728	0.274	0.00114728	0.58621
0.00114768	0.27346	0.00114768	0.5884
0.00114808	0.27292	0.00114808	0.58676
0.00114848	0.27373	0.00114848	0.58922
0.00114888	0.27563	0.00114888	0.58895
0.00114928	0.27346	0.00114928	0.5884
0.00114968	0.274	0.00114968	0.59005
0.00115008	0.27319	0.00115008	0.58922
0.00115048	0.27455	0.00115048	0.59005
0.00115088	0.27509	0.00115088	0.59005
0.00115128	0.27292	0.00115128	0.58977
0.00115168	0.274	0.00115168	0.5873
0.00115208	0.27346	0.00115208	0.58895
0.00115248	0.27536	0.00115248	0.58703
0.00115288	0.27536	0.00115288	0.58813
0.00115328	0.27455	0.00115328	0.58785
0.00115368	0.27319	0.00115368	0.58785
0.00115408	0.27265	0.00115408	0.58566
0.00115448	0.27427	0.00115448	0.58758
0.00115488	0.27563	0.00115488	0.58484
0.00115528	0.27509	0.00115528	0.58676
0.00115568	0.27482	0.00115568	0.58593
0.00115608	0.27427	0.00115608	0.58785
0.00115648	0.27427	0.00115648	0.58621
0.00115688	0.27373	0.00115688	0.58676
0.00115728	0.274	0.00115728	0.58621
0.00115768	0.27536	0.00115768	0.58593
0.00115808	0.27292	0.00115808	0.58703
0.00115848	0.27482	0.00115848	0.58785
0.00115888	0.27482	0.00115888	0.58895
0.00115928	0.27482	0.00115928	0.58703
0.00115968	0.274	0.00115968	0.58703
0.00116008	0.2759	0.00116008	0.58538
0.00116048	0.27536	0.00116048	0.58456
0.00116088	0.27427	0.00116088	0.58346
0.00116128	0.27427	0.00116128	0.58346
0.00116168	0.27427	0.00116168	0.58264
0.00116208	0.27427	0.00116208	0.58072
0.00116248	0.27427	0.00116248	0.58017
0.00116288	0.27644	0.00116288	0.58017
0.00116328	0.27509	0.00116328	0.5777
0.00116368	0.27509	0.00116368	0.57798
0.00116408	0.2759	0.00116408	0.57715
0.00116448	0.27211	0.00116448	0.5766
0.00116488	0.27455	0.00116488	0.57633
0.00116528	0.27644	0.00116528	0.57606
0.00116568	0.27509	0.00116568	0.57386
0.00116608	0.274	0.00116608	0.57139
0.00116648	0.27482	0.00116648	0.57249
0.00116688	0.27427	0.00116688	0.57029
0.00116728	0.27536	0.00116728	0.57084
0.00116768	0.27509	0.00116768	0.56865
0.00116808	0.27455	0.00116808	0.56783
0.00116848	0.27455	0.00116848	0.567
0.00116888	0.2759	0.00116888	0.56728
0.00116928	0.27482	0.00116928	0.56673
0.00116968	0.27536	0.00116968	0.56344
0.00117008	0.27427	0.00117008	0.56426
0.00117048	0.27509	0.00117048	0.56124
0.00117088	0.27482	0.00117088	0.56014
0.00117128	0.27427	0.00117128	0.55932
0.00117168	0.27536	0.00117168	0.55767
0.00117208	0.27563	0.00117208	0.55493
0.00117248	0.27536	0.00117248	0.55411
0.00117288	0.27536	0.00117288	0.55466
0.00117328	0.27509	0.00117328	0.55191
0.00117368	0.27563	0.00117368	0.55109
0.00117408	0.27509	0.00117408	0.55027
0.00117448	0.27509	0.00117448	0.5478
0.00117488	0.2759	0.00117488	0.54588
0.00117528	0.27563	0.00117528	0.54725
0.00117568	0.27563	0.00117568	0.5456
0.00117608	0.27509	0.00117608	0.54368
0.00117648	0.27644	0.00117648	0.54094
0.00117688	0.27644	0.00117688	0.53929
0.00117728	0.27455	0.00117728	0.53765
0.00117768	0.27644	0.00117768	0.53463
0.00117808	0.27644	0.00117808	0.53463
0.00117848	0.27482	0.00117848	0.53381
0.00117888	0.2759	0.00117888	0.53024
0.00117928	0.27752	0.00117928	0.53024
0.00117968	0.27509	0.00117968	0.52832
0.00118008	0.27671	0.00118008	0.52558
0.00118048	0.27563	0.00118048	0.52365
0.00118088	0.27536	0.00118088	0.52146
0.00118128	0.2759	0.00118128	0.51981
0.00118168	0.27509	0.00118168	0.51789
0.00118208	0.27536	0.00118208	0.5168
0.00118248	0.27779	0.00118248	0.51433
0.00118288	0.27752	0.00118288	0.51268
0.00118328	0.2759	0.00118328	0.51076
0.00118368	0.2759	0.00118368	0.51021
0.00118408	0.27698	0.00118408	0.50802
0.00118448	0.27509	0.00118448	0.5039
0.00118488	0.27644	0.00118488	0.50308
0.00118528	0.27644	0.00118528	0.50061
0.00118568	0.27671	0.00118568	0.49787
0.00118608	0.27563	0.00118608	0.49732
0.00118648	0.27536	0.00118648	0.49402
0.00118688	0.2759	0.00118688	0.49183
0.00118728	0.27644	0.00118728	0.49101
0.00118768	0.27671	0.00118768	0.48744
0.00118808	0.27617	0.00118808	0.4847
0.00118848	0.27671	0.00118848	0.48223
0.00118888	0.27698	0.00118888	0.48058
0.00118928	0.27671	0.00118928	0.47811
0.00118968	0.27644	0.00118968	0.474
0.00119008	0.2759	0.00119008	0.47317
0.00119048	0.27752	0.00119048	0.47235
0.00119088	0.27455	0.00119088	0.46933
0.00119128	0.27671	0.00119128	0.46659
0.00119168	0.27482	0.00119168	0.46302
0.00119208	0.27563	0.00119208	0.45973
0.00119248	0.27617	0.00119248	0.45808
0.00119288	0.2759	0.00119288	0.45479
0.00119328	0.27671	0.00119328	0.4515
0.00119368	0.27509	0.00119368	0.45068
0.00119408	0.27671	0.00119408	0.44711
0.00119448	0.27509	0.00119448	0.44437
0.00119488	0.27563	0.00119488	0.44272
0.00119528	0.27617	0.00119528	0.43888
0.00119568	0.27482	0.00119568	0.43888
0.00119608	0.27806	0.00119608	0.43449
0.00119648	0.27644	0.00119648	0.43257
0.00119688	0.27644	0.00119688	0.42845
0.00119728	0.27644	0.00119728	0.42544
0.00119768	0.27806	0.00119768	0.42461
0.00119808	0.27698	0.00119808	0.4216
0.00119848	0.27617	0.00119848	0.41611
0.00119888	0.27644	0.00119888	0.41446
0.00119928	0.27563	0.00119928	0.41145
0.00119968	0.2759	0.00119968	0.40843
0.00120008	0.27644	0.00120008	0.40733
0.00120048	0.27752	0.00120048	0.40321
0.00120088	0.27671	0.00120088	0.40047
0.00120128	0.2759	0.00120128	0.39745
0.00120168	0.27644	0.00120168	0.39553
0.00120208	0.27563	0.00120208	0.39197
0.00120248	0.2759	0.00120248	0.38758
0.00120288	0.27698	0.00120288	0.38291
0.00120328	0.27563	0.00120328	0.37989
0.00120368	0.27509	0.00120368	0.37605
0.00120408	0.27752	0.00120408	0.37276
0.00120448	0.27698	0.00120448	0.36974
0.00120488	0.27617	0.00120488	0.36645
0.00120528	0.27725	0.00120528	0.36151
0.00120568	0.27563	0.00120568	0.35904
0.00120608	0.27617	0.00120608	0.35548
0.00120648	0.27563	0.00120648	0.35081
0.00120688	0.27617	0.00120688	0.34807
0.00120728	0.27563	0.00120728	0.3445
0.00120768	0.27563	0.00120768	0.34203
0.00120808	0.27617	0.00120808	0.33819
0.00120848	0.27617	0.00120848	0.3338
0.00120888	0.27698	0.00120888	0.32941
0.00120928	0.27725	0.00120928	0.32475
0.00120968	0.27725	0.00120968	0.31954
0.00121008	0.27617	0.00121008	0.31542
0.00121048	0.2759	0.00121048	0.30994
0.00121088	0.27536	0.00121088	0.30747
0.00121128	0.27644	0.00121128	0.30472
0.00121168	0.27644	0.00121168	0.29869
0.00121208	0.2759	0.00121208	0.29649
0.00121248	0.27563	0.00121248	0.29155
0.00121288	0.27752	0.00121288	0.28469
0.00121328	0.27644	0.00121328	0.2825
0.00121368	0.27671	0.00121368	0.27729
0.00121408	0.27752	0.00121408	0.27262
0.00121448	0.27427	0.00121448	0.26933
0.00121488	0.27536	0.00121488	0.26412
0.00121528	0.27644	0.00121528	0.26
0.00121568	0.27806	0.00121568	0.25506
0.00121608	0.27698	0.00121608	0.25068
0.00121648	0.27563	0.00121648	0.24766
0.00121688	0.2759	0.00121688	0.24135
0.00121728	0.27563	0.00121728	0.23805
0.00121768	0.27779	0.00121768	0.23449
0.00121808	0.27671	0.00121808	0.23147
0.00121848	0.27644	0.00121848	0.22708
0.00121888	0.27671	0.00121888	0.22461
0.00121928	0.2759	0.00121928	0.22159
0.00121968	0.27617	0.00121968	0.21912
0.00122008	0.27698	0.00122008	0.21528
0.00122048	0.27698	0.00122048	0.21419
0.00122088	0.27644	0.00122088	0.21062
0.00122128	0.27752	0.00122128	0.20952
0.00122168	0.27752	0.00122168	0.20678
0.00122208	0.27725	0.00122208	0.20486
0.00122248	0.27833	0.00122248	0.20404
0.00122288	0.27698	0.00122288	0.20266
0.00122328	0.27671	0.00122328	0.19965
0.00122368	0.27725	0.00122368	0.19773
0.00122408	0.27779	0.00122408	0.1969
0.00122448	0.27725	0.00122448	0.19745
0.00122488	0.27644	0.00122488	0.19608
0.00122528	0.27563	0.00122528	0.19471
0.00122568	0.27536	0.00122568	0.19196
0.00122608	0.27698	0.00122608	0.19526
0.00122648	0.27563	0.00122648	0.19388
0.00122688	0.27644	0.00122688	0.19416
0.00122728	0.27671	0.00122728	0.19114
0.00122768	0.27563	0.00122768	0.19279
0.00122808	0.27698	0.00122808	0.19087
0.00122848	0.27644	0.00122848	0.19032
0.00122888	0.27536	0.00122888	0.19004
0.00122928	0.27617	0.00122928	0.19087
0.00122968	0.2759	0.00122968	0.19087
0.00123008	0.27617	0.00123008	0.19114
0.00123048	0.27563	0.00123048	0.19142
0.00123088	0.27644	0.00123088	0.19169
0.00123128	0.27752	0.00123128	0.19279
0.00123168	0.27509	0.00123168	0.19114
0.00123208	0.27725	0.00123208	0.19032
0.00123248	0.27563	0.00123248	0.19306
0.00123288	0.27671	0.00123288	0.19388
0.00123328	0.27698	0.00123328	0.19334
0.00123368	0.2759	0.00123368	0.19169
0.00123408	0.27617	0.00123408	0.19361
0.00123448	0.27725	0.00123448	0.19443
0.00123488	0.27617	0.00123488	0.19361
0.00123528	0.27617	0.00123528	0.19306
0.00123568	0.27644	0.00123568	0.19361
0.00123608	0.27752	0.00123608	0.19443
0.00123648	0.27509	0.00123648	0.1958
0.00123688	0.27752	0.00123688	0.1958
0.00123728	0.27779	0.00123728	0.19635
0.00123768	0.27455	0.00123768	0.19526
0.00123808	0.27779	0.00123808	0.19718
0.00123848	0.27671	0.00123848	0.19608
0.00123888	0.2759	0.00123888	0.198
0.00123928	0.27617	0.00123928	0.19635
0.00123968	0.27617	0.00123968	0.19745
0.00124008	0.27536	0.00124008	0.19663
0.00124048	0.27482	0.00124048	0.19937
0.00124088	0.27671	0.00124088	0.19663
0.00124128	0.27617	0.00124128	0.20047
0.00124168	0.2759	0.00124168	0.19965
0.00124208	0.27698	0.00124208	0.20074
0.00124248	0.27752	0.00124248	0.20074
0.00124288	0.27671	0.00124288	0.20047
0.00124328	0.27482	0.00124328	0.19992
0.00124368	0.27644	0.00124368	0.19992
0.00124408	0.27644	0.00124408	0.20266
0.00124448	0.27509	0.00124448	0.20211
0.00124488	0.27698	0.00124488	0.20239
0.00124528	0.27536	0.00124528	0.20541
0.00124568	0.27644	0.00124568	0.20211
0.00124608	0.27617	0.00124608	0.20705
0.00124648	0.27563	0.00124648	0.2087
0.00124688	0.2759	0.00124688	0.20705
0.00124728	0.27563	0.00124728	0.20897
0.00124768	0.27563	0.00124768	0.21172
0.00124808	0.27536	0.00124808	0.21309
0.00124848	0.27617	0.00124848	0.21611
0.00124888	0.27617	0.00124888	0.21556
0.00124928	0.27671	0.00124928	0.22159
0.00124968	0.27455	0.00124968	0.22461
0.00125008	0.27617	0.00125008	0.2279
0.00125048	0.27671	0.00125048	0.23147
0.00125088	0.27698	0.00125088	0.23559
0.00125128	0.27617	0.00125128	0.23915
0.00125168	0.27644	0.00125168	0.24464
0.00125208	0.27644	0.00125208	0.25013
0.00125248	0.27617	0.00125248	0.25479
0.00125288	0.27563	0.00125288	0.25808
0.00125328	0.27644	0.00125328	0.26302
0.00125368	0.27563	0.00125368	0.26741
0.00125408	0.27455	0.00125408	0.2729
0.00125448	0.27617	0.00125448	0.27482
0.00125488	0.27536	0.00125488	0.28058
0.00125528	0.27509	0.00125528	0.2825
0.00125568	0.27563	0.00125568	0.28524
0.00125608	0.2759	0.00125608	0.28799
0.00125648	0.27563	0.00125648	0.29155
0.00125688	0.27563	0.00125688	0.29485
0.00125728	0.27563	0.00125728	0.29457
0.00125768	0.27644	0.00125768	0.29896
0.00125808	0.27752	0.00125808	0.30006
0.00125848	0.27725	0.00125848	0.30198
0.00125888	0.27509	0.00125888	0.30308
0.00125928	0.27563	0.00125928	0.305
0.00125968	0.27563	0.00125968	0.30472
0.00126008	0.27671	0.00126008	0.30719
0.00126048	0.27509	0.00126048	0.30774
0.00126088	0.274	0.00126088	0.30829
0.00126128	0.27617	0.00126128	0.30856
0.00126168	0.2759	0.00126168	0.30856
0.00126208	0.2759	0.00126208	0.31076
0.00126248	0.27644	0.00126248	0.31213
0.00126288	0.27509	0.00126288	0.31213
0.00126328	0.27671	0.00126328	0.3124
0.00126368	0.27725	0.00126368	0.31295
0.00126408	0.27563	0.00126408	0.31323
0.00126448	0.27482	0.00126448	0.31405
0.00126488	0.27644	0.00126488	0.31405
0.00126528	0.27617	0.00126528	0.3135
0.00126568	0.27509	0.00126568	0.31378
0.00126608	0.27752	0.00126608	0.31432
0.00126648	0.27536	0.00126648	0.3157
0.00126688	0.27536	0.00126688	0.31378
0.00126728	0.27617	0.00126728	0.3124
0.00126768	0.27536	0.00126768	0.3146
0.00126808	0.27806	0.00126808	0.31405
0.00126848	0.27671	0.00126848	0.31405
0.00126888	0.27509	0.00126888	0.3124
0.00126928	0.27563	0.00126928	0.31432
0.00126968	0.27427	0.00126968	0.31295
0.00127008	0.27536	0.00127008	0.31323
0.00127048	0.27536	0.00127048	0.31268
0.00127088	0.27563	0.00127088	0.31213
0.00127128	0.27752	0.00127128	0.31048
0.00127168	0.2759	0.00127168	0.3124
0.00127208	0.27617	0.00127208	0.31268
0.00127248	0.27644	0.00127248	0.3124
0.00127288	0.27617	0.00127288	0.31076
0.00127328	0.27455	0.00127328	0.31186
0.00127368	0.27563	0.00127368	0.30994
0.00127408	0.27698	0.00127408	0.30939
0.00127448	0.27617	0.00127448	0.31103
0.00127488	0.27536	0.00127488	0.30966
0.00127528	0.27617	0.00127528	0.30884
0.00127568	0.27617	0.00127568	0.30884
0.00127608	0.27536	0.00127608	0.30719
0.00127648	0.27563	0.00127648	0.30637
0.00127688	0.27671	0.00127688	0.30747
0.00127728	0.27509	0.00127728	0.30637
0.00127768	0.27617	0.00127768	0.30308
0.00127808	0.27671	0.00127808	0.30472
0.00127848	0.27509	0.00127848	0.3028
0.00127888	0.27563	0.00127888	0.30116
0.00127928	0.27617	0.00127928	0.3017
0.00127968	0.27455	0.00127968	0.29978
0.00128008	0.27536	0.00128008	0.29924
0.00128048	0.27509	0.00128048	0.29594
0.00128088	0.27671	0.00128088	0.2943
0.00128128	0.27617	0.00128128	0.29293
0.00128168	0.27671	0.00128168	0.29183
0.00128208	0.2759	0.00128208	0.28908
0.00128248	0.27617	0.00128248	0.28771
0.00128288	0.27427	0.00128288	0.28662
0.00128328	0.27536	0.00128328	0.28497
0.00128368	0.2759	0.00128368	0.28497
0.00128408	0.27373	0.00128408	0.2836
0.00128448	0.27671	0.00128448	0.28469
0.00128488	0.27536	0.00128488	0.2836
0.00128528	0.27644	0.00128528	0.2836
0.00128568	0.27698	0.00128568	0.28387
0.00128608	0.27698	0.00128608	0.28634
0.00128648	0.27617	0.00128648	0.28771
0.00128688	0.27563	0.00128688	0.28908
0.00128728	0.27644	0.00128728	0.29183
0.00128768	0.27644	0.00128768	0.291
0.00128808	0.27482	0.00128808	0.2943
0.00128848	0.2759	0.00128848	0.29594
0.00128888	0.2759	0.00128888	0.30253
0.00128928	0.27536	0.00128928	0.30445
0.00128968	0.274	0.00128968	0.30747
0.00129008	0.27509	0.00129008	0.31103
0.00129048	0.27617	0.00129048	0.31405
0.00129088	0.2759	0.00129088	0.31762
0.00129128	0.27455	0.00129128	0.32091
0.00129168	0.27427	0.00129168	0.3253
0.00129208	0.27644	0.00129208	0.32722
0.00129248	0.27455	0.00129248	0.33079
0.00129288	0.27806	0.00129288	0.33216
0.00129328	0.2759	0.00129328	0.33518
0.00129368	0.27482	0.00129368	0.33984
0.00129408	0.27536	0.00129408	0.34176
0.00129448	0.27671	0.00129448	0.34615
0.00129488	0.27455	0.00129488	0.34917
0.00129528	0.27725	0.00129528	0.35219
0.00129568	0.27509	0.00129568	0.35575
0.00129608	0.27563	0.00129608	0.35904
0.00129648	0.27725	0.00129648	0.36069
0.00129688	0.27563	0.00129688	0.36453
0.00129728	0.27427	0.00129728	0.36782
0.00129768	0.27671	0.00129768	0.37112
0.00129808	0.2759	0.00129808	0.37496
0.00129848	0.27482	0.00129848	0.37551
0.00129888	0.27644	0.00129888	0.3788
0.00129928	0.27671	0.00129928	0.38346
0.00129968	0.27617	0.00129968	0.38703
0.00130008	0.27671	0.00130008	0.38813
0.00130048	0.27671	0.00130048	0.39224
0.00130088	0.2759	0.00130088	0.39444
0.00130128	0.27644	0.00130128	0.39855
0.00130168	0.27536	0.00130168	0.40294
0.00130208	0.27563	0.00130208	0.40404
0.00130248	0.2759	0.00130248	0.40651
0.00130288	0.2759	0.00130288	0.41145
0.00130328	0.2759	0.00130328	0.41062
0.00130368	0.27482	0.00130368	0.41556
0.00130408	0.27482	0.00130408	0.41748
0.00130448	0.27671	0.00130448	0.41968
0.00130488	0.27617	0.00130488	0.42297
0.00130528	0.2759	0.00130528	0.42489
0.00130568	0.27644	0.00130568	0.42763
0.00130608	0.27644	0.00130608	0.4301
0.00130648	0.2759	0.00130648	0.43257
0.00130688	0.2759	0.00130688	0.43614
0.00130728	0.27644	0.00130728	0.4397
0.00130768	0.27644	0.00130768	0.44108
0.00130808	0.27509	0.00130808	0.44437
0.00130848	0.27563	0.00130848	0.44711
0.00130888	0.27671	0.00130888	0.44848
0.00130928	0.2759	0.00130928	0.45177
0.00130968	0.27536	0.00130968	0.45424
0.00131008	0.27617	0.00131008	0.45452
0.00131048	0.27617	0.00131048	0.45918
0.00131088	0.27455	0.00131088	0.4611
0.00131128	0.2759	0.00131128	0.46165
0.00131168	0.27617	0.00131168	0.46604
0.00131208	0.27779	0.00131208	0.46659
0.00131248	0.27563	0.00131248	0.47043
0.00131288	0.27752	0.00131288	0.46988
0.00131328	0.27536	0.00131328	0.47537
0.00131368	0.27644	0.00131368	0.47839
0.00131408	0.27482	0.00131408	0.48003
0.00131448	0.27671	0.00131448	0.48086
0.00131488	0.27563	0.00131488	0.48442
0.00131528	0.27698	0.00131528	0.48634
0.00131568	0.27509	0.00131568	0.48826
0.00131608	0.27671	0.00131608	0.49128
0.00131648	0.27617	0.00131648	0.4932
0.00131688	0.27617	0.00131688	0.49457
0.00131728	0.27536	0.00131728	0.49732
0.00131768	0.27698	0.00131768	0.49677
0.00131808	0.27779	0.00131808	0.50088
0.00131848	0.27779	0.00131848	0.50308
0.00131888	0.27617	0.00131888	0.50445
0.00131928	0.27482	0.00131928	0.50445
0.00131968	0.27563	0.00131968	0.50719
0.00132008	0.27536	0.00132008	0.51076
0.00132048	0.27671	0.00132048	0.51378
0.00132088	0.27617	0.00132088	0.51241
0.00132128	0.27536	0.00132128	0.5146
0.00132168	0.27752	0.00132168	0.51872
0.00132208	0.27806	0.00132208	0.51927
0.00132248	0.27752	0.00132248	0.51954
0.00132288	0.27482	0.00132288	0.51954
0.00132328	0.27779	0.00132328	0.52448
0.00132368	0.2759	0.00132368	0.52311
0.00132408	0.27563	0.00132408	0.52859
0.00132448	0.2786	0.00132448	0.52914
0.00132488	0.27617	0.00132488	0.52996
0.00132528	0.27806	0.00132528	0.53216
0.00132568	0.27752	0.00132568	0.53353
0.00132608	0.27806	0.00132608	0.53298
0.00132648	0.2759	0.00132648	0.53573
0.00132688	0.27617	0.00132688	0.53792
0.00132728	0.27806	0.00132728	0.53874
0.00132768	0.27563	0.00132768	0.54039
0.00132808	0.27644	0.00132808	0.54094
0.00132848	0.27752	0.00132848	0.54176
0.00132888	0.27806	0.00132888	0.54368
0.00132928	0.27725	0.00132928	0.54423
0.00132968	0.27779	0.00132968	0.54807
0.00133008	0.27698	0.00133008	0.54752
0.00133048	0.27644	0.00133048	0.54972
0.00133088	0.2759	0.00133088	0.55164
0.00133128	0.27833	0.00133128	0.55109
0.00133168	0.27536	0.00133168	0.55246
0.00133208	0.27698	0.00133208	0.55438
0.00133248	0.27698	0.00133248	0.55466
0.00133288	0.27725	0.00133288	0.55603
0.00133328	0.27671	0.00133328	0.55877
0.00133368	0.27671	0.00133368	0.55685
0.00133408	0.27888	0.00133408	0.56124
0.00133448	0.27698	0.00133448	0.56206
0.00133488	0.27617	0.00133488	0.55987
0.00133528	0.27779	0.00133528	0.56234
0.00133568	0.27725	0.00133568	0.56344
0.00133608	0.27779	0.00133608	0.56398
0.00133648	0.27779	0.00133648	0.56645
0.00133688	0.27779	0.00133688	0.56645
0.00133728	0.27671	0.00133728	0.5659
0.00133768	0.27752	0.00133768	0.56673
0.00133808	0.27725	0.00133808	0.56618
0.00133848	0.27806	0.00133848	0.56783
0.00133888	0.27752	0.00133888	0.5692
0.00133928	0.27671	0.00133928	0.56892
0.00133968	0.27698	0.00133968	0.56975
0.00134008	0.2759	0.00134008	0.57167
0.00134048	0.2759	0.00134048	0.57112
0.00134088	0.27725	0.00134088	0.57276
0.00134128	0.27833	0.00134128	0.57222
0.00134168	0.27752	0.00134168	0.57304
0.00134208	0.2759	0.00134208	0.57167
0.00134248	0.27779	0.00134248	0.57441
0.00134288	0.2786	0.00134288	0.57386
0.00134328	0.27752	0.00134328	0.57441
0.00134368	0.27698	0.00134368	0.57331
0.00134408	0.27698	0.00134408	0.57606
0.00134448	0.27617	0.00134448	0.57578
0.00134488	0.27779	0.00134488	0.57468
0.00134528	0.27779	0.00134528	0.57606
0.00134568	0.27725	0.00134568	0.57825
0.00134608	0.27833	0.00134608	0.57578
0.00134648	0.2759	0.00134648	0.57688
0.00134688	0.2786	0.00134688	0.57496
0.00134728	0.27671	0.00134728	0.57688
0.00134768	0.27725	0.00134768	0.57606
0.00134808	0.27806	0.00134808	0.57688
0.00134848	0.27671	0.00134848	0.57715
0.00134888	0.27698	0.00134888	0.57853
0.00134928	0.27806	0.00134928	0.57633
0.00134968	0.27779	0.00134968	0.5777
0.00135008	0.2786	0.00135008	0.57633
0.00135048	0.27752	0.00135048	0.5777
0.00135088	0.27725	0.00135088	0.57606
0.00135128	0.2786	0.00135128	0.57414
0.00135168	0.27752	0.00135168	0.5777
0.00135208	0.27644	0.00135208	0.57633
0.00135248	0.27644	0.00135248	0.57743
0.00135288	0.27942	0.00135288	0.57578
0.00135328	0.27779	0.00135328	0.57551
0.00135368	0.27617	0.00135368	0.57359
0.00135408	0.27806	0.00135408	0.57414
0.00135448	0.2786	0.00135448	0.57414
0.00135488	0.27888	0.00135488	0.57139
0.00135528	0.27752	0.00135528	0.57276
0.00135568	0.27888	0.00135568	0.57386
0.00135608	0.27888	0.00135608	0.57222
0.00135648	0.27752	0.00135648	0.57057
0.00135688	0.27888	0.00135688	0.57249
0.00135728	0.27888	0.00135728	0.57249
0.00135768	0.27833	0.00135768	0.57194
0.00135808	0.27888	0.00135808	0.56947
0.00135848	0.27833	0.00135848	0.56865
0.00135888	0.27833	0.00135888	0.56728
0.00135928	0.27888	0.00135928	0.56536
0.00135968	0.27779	0.00135968	0.56728
0.00136008	0.27942	0.00136008	0.56618
0.00136048	0.27779	0.00136048	0.56481
0.00136088	0.27806	0.00136088	0.56508
0.00136128	0.2786	0.00136128	0.56289
0.00136168	0.27888	0.00136168	0.56289
0.00136208	0.27779	0.00136208	0.56206
0.00136248	0.2786	0.00136248	0.56042
0.00136288	0.28023	0.00136288	0.56069
0.00136328	0.27806	0.00136328	0.55822
0.00136368	0.2786	0.00136368	0.55713
0.00136408	0.27915	0.00136408	0.55548
0.00136448	0.27752	0.00136448	0.5563
0.00136488	0.27725	0.00136488	0.55438
0.00136528	0.27752	0.00136528	0.55356
0.00136568	0.27915	0.00136568	0.55164
0.00136608	0.27969	0.00136608	0.55219
0.00136648	0.2786	0.00136648	0.54944
0.00136688	0.27833	0.00136688	0.54752
0.00136728	0.27806	0.00136728	0.54807
0.00136768	0.27888	0.00136768	0.54368
0.00136808	0.27833	0.00136808	0.54451
0.00136848	0.2805	0.00136848	0.54204
0.00136888	0.27888	0.00136888	0.54259
0.00136928	0.27888	0.00136928	0.54149
0.00136968	0.27969	0.00136968	0.53984
0.00137008	0.27833	0.00137008	0.53627
0.00137048	0.27833	0.00137048	0.53682
0.00137088	0.28104	0.00137088	0.53435
0.00137128	0.27942	0.00137128	0.53134
0.00137168	0.2805	0.00137168	0.53106
0.00137208	0.27942	0.00137208	0.52969
0.00137248	0.27969	0.00137248	0.53024
0.00137288	0.28104	0.00137288	0.52695
0.00137328	0.27942	0.00137328	0.52503
0.00137368	0.2805	0.00137368	0.52091
0.00137408	0.27942	0.00137408	0.52146
0.00137448	0.28023	0.00137448	0.52064
0.00137488	0.27942	0.00137488	0.51872
0.00137528	0.27996	0.00137528	0.51542
0.00137568	0.2786	0.00137568	0.5146
0.00137608	0.2786	0.00137608	0.51268
0.00137648	0.27942	0.00137648	0.51158
0.00137688	0.27942	0.00137688	0.50774
0.00137728	0.27833	0.00137728	0.50555
0.00137768	0.27915	0.00137768	0.50226
0.00137808	0.27942	0.00137808	0.50143
0.00137848	0.27888	0.00137848	0.50061
0.00137888	0.27996	0.00137888	0.49787
0.00137928	0.28104	0.00137928	0.4954
0.00137968	0.27942	0.00137968	0.49759
0.00138008	0.2805	0.00138008	0.4921
0.00138048	0.27969	0.00138048	0.48936
0.00138088	0.28131	0.00138088	0.48634
0.00138128	0.27888	0.00138128	0.48442
0.00138168	0.28023	0.00138168	0.48031
0.00138208	0.27752	0.00138208	0.47976
0.00138248	0.27942	0.00138248	0.47866
0.00138288	0.27833	0.00138288	0.47482
0.00138328	0.2786	0.00138328	0.474
0.00138368	0.27942	0.00138368	0.46961
0.00138408	0.27942	0.00138408	0.46769
0.00138448	0.27969	0.00138448	0.46549
0.00138488	0.28077	0.00138488	0.46357
0.00138528	0.28185	0.00138528	0.46028
0.00138568	0.27833	0.00138568	0.45699
0.00138608	0.27942	0.00138608	0.45507
0.00138648	0.28158	0.00138648	0.45068
0.00138688	0.28023	0.00138688	0.44766
0.00138728	0.27942	0.00138728	0.44601
0.00138768	0.2805	0.00138768	0.44382
0.00138808	0.28077	0.00138808	0.43833
0.00138848	0.28077	0.00138848	0.43696
0.00138888	0.27996	0.00138888	0.43449
0.00138928	0.27942	0.00138928	0.43065
0.00138968	0.2805	0.00138968	0.42928
0.00139008	0.2786	0.00139008	0.42544
0.00139048	0.28104	0.00139048	0.42242
0.00139088	0.28212	0.00139088	0.41748
0.00139128	0.27833	0.00139128	0.41693
0.00139168	0.27969	0.00139168	0.41254
0.00139208	0.27969	0.00139208	0.4098
0.00139248	0.27888	0.00139248	0.40404
0.00139288	0.27915	0.00139288	0.40321
0.00139328	0.28023	0.00139328	0.39937
0.00139368	0.27915	0.00139368	0.39444
0.00139408	0.27888	0.00139408	0.39032
0.00139448	0.2786	0.00139448	0.38703
0.00139488	0.28023	0.00139488	0.38593
0.00139528	0.28077	0.00139528	0.38072
0.00139568	0.27915	0.00139568	0.37633
0.00139608	0.27915	0.00139608	0.37331
0.00139648	0.28023	0.00139648	0.3681
0.00139688	0.2805	0.00139688	0.367
0.00139728	0.28023	0.00139728	0.36288
0.00139768	0.27942	0.00139768	0.35877
0.00139808	0.27969	0.00139808	0.35301
0.00139848	0.27969	0.00139848	0.35026
0.00139888	0.27969	0.00139888	0.34697
0.00139928	0.2786	0.00139928	0.34203
0.00139968	0.2805	0.00139968	0.33682
0.00140008	0.28023	0.00140008	0.33216
0.00140048	0.2805	0.00140048	0.32832
0.00140088	0.2805	0.00140088	0.32146
0.00140128	0.27888	0.00140128	0.31871
0.00140168	0.28077	0.00140168	0.31213
0.00140208	0.27942	0.00140208	0.30856
0.00140248	0.27996	0.00140248	0.30335
0.00140288	0.27969	0.00140288	0.30116
0.00140328	0.2805	0.00140328	0.2921
0.00140368	0.28023	0.00140368	0.28744
0.00140408	0.27996	0.00140408	0.2836
0.00140448	0.2805	0.00140448	0.27729
0.00140488	0.28023	0.00140488	0.27235
0.00140528	0.27915	0.00140528	0.26631
0.00140568	0.27888	0.00140568	0.26083
0.00140608	0.28104	0.00140608	0.25479
0.00140648	0.28185	0.00140648	0.24875
0.00140688	0.28158	0.00140688	0.24464
0.00140728	0.27969	0.00140728	0.23751
0.00140768	0.28023	0.00140768	0.23037
0.00140808	0.27969	0.00140808	0.22543
0.00140848	0.2805	0.00140848	0.2172
0.00140888	0.28104	0.00140888	0.21007
0.00140928	0.27996	0.00140928	0.20458
0.00140968	0.2805	0.00140968	0.198
0.00141008	0.28158	0.00141008	0.19059
0.00141048	0.2805	0.00141048	0.18428
0.00141088	0.27996	0.00141088	0.17578
0.00141128	0.27969	0.00141128	0.17029
0.00141168	0.28077	0.00141168	0.16206
0.00141208	0.27888	0.00141208	0.15246
0.00141248	0.28131	0.00141248	0.14423
0.00141288	0.27833	0.00141288	0.13929
0.00141328	0.28023	0.00141328	0.12914
0.00141368	0.27969	0.00141368	0.12063
0.00141408	0.28023	0.00141408	0.1135
0.00141448	0.27996	0.00141448	0.10417
0.00141488	0.28077	0.00141488	0.09539
0.00141528	0.27969	0.00141528	0.08661
0.00141568	0.28077	0.00141568	0.07975
0.00141608	0.27942	0.00141608	0.07015
0.00141648	0.2786	0.00141648	0.06137
0.00141688	0.27915	0.00141688	0.05012
0.00141728	0.28104	0.00141728	0.04381
0.00141768	0.2805	0.00141768	0.03503
0.00141808	0.28023	0.00141808	0.02626
0.00141848	0.2786	0.00141848	0.01748
0.00141888	0.27942	0.00141888	0.00678
0.00141928	0.28023	0.00141928	-0.00502
0.00141968	0.28104	0.00141968	-0.01215
0.00142008	0.27806	0.00142008	-0.02285
0.00142048	0.27779	0.00142048	-0.02834
0.00142088	0.27915	0.00142088	-0.03877
0.00142128	0.28158	0.00142128	-0.04809
0.00142168	0.27915	0.00142168	-0.05632
0.00142208	0.27969	0.00142208	-0.06538
0.00142248	0.27779	0.00142248	-0.07251
0.00142288	0.27915	0.00142288	-0.07745
0.00142328	0.27888	0.00142328	-0.08733
0.00142368	0.27969	0.00142368	-0.09391
0.00142408	0.2786	0.00142408	-0.10132
0.00142448	0.27915	0.00142448	-0.10927
0.00142488	0.27779	0.00142488	-0.11805
0.00142528	0.27725	0.00142528	-0.12354
0.00142568	0.28023	0.00142568	-0.12903
0.00142608	0.27779	0.00142608	-0.13589
0.00142648	0.27833	0.00142648	-0.1422
0.00142688	0.28023	0.00142688	-0.14659
0.00142728	0.2786	0.00142728	-0.15207
0.00142768	0.27942	0.00142768	-0.15537
0.00142808	0.27942	0.00142808	-0.16222
0.00142848	0.27996	0.00142848	-0.16634
0.00142888	0.27833	0.00142888	-0.16826
0.00142928	0.27698	0.00142928	-0.17347
0.00142968	0.27806	0.00142968	-0.17622
0.00143008	0.27833	0.00143008	-0.17759
0.00143048	0.2786	0.00143048	-0.18225
0.00143088	0.27617	0.00143088	-0.18609
0.00143128	0.27833	0.00143128	-0.19021
0.00143168	0.27833	0.00143168	-0.19103
0.00143208	0.27725	0.00143208	-0.19487
0.00143248	0.27833	0.00143248	-0.19707
0.00143288	0.2786	0.00143288	-0.19734
0.00143328	0.27779	0.00143328	-0.20118
0.00143368	0.27915	0.00143368	-0.20365
0.00143408	0.27942	0.00143408	-0.20612
0.00143448	0.27725	0.00143448	-0.20777
0.00143488	0.27969	0.00143488	-0.20886
0.00143528	0.27888	0.00143528	-0.20914
0.00143568	0.27942	0.00143568	-0.21216
0.00143608	0.27915	0.00143608	-0.21545
0.00143648	0.2786	0.00143648	-0.21517
0.00143688	0.27806	0.00143688	-0.21572
0.00143728	0.27752	0.00143728	-0.21627
0.00143768	0.27888	0.00143768	-0.21984
0.00143808	0.27455	0.00143808	-0.22176
0.00143848	0.27779	0.00143848	-0.22231
0.00143888	0.27644	0.00143888	-0.2234
0.00143928	0.27617	0.00143928	-0.22395
0.00143968	0.27942	0.00143968	-0.22532
0.00144008	0.27698	0.00144008	-0.22725
0.00144048	0.27725	0.00144048	-0.22505
0.00144088	0.2786	0.00144088	-0.22752
0.00144128	0.27752	0.00144128	-0.22779
0.00144168	0.27644	0.00144168	-0.22944
0.00144208	0.27698	0.00144208	-0.23109
0.00144248	0.2759	0.00144248	-0.23109
0.00144288	0.27698	0.00144288	-0.2341
0.00144328	0.27617	0.00144328	-0.23383
0.00144368	0.27806	0.00144368	-0.2352
0.00144408	0.2759	0.00144408	-0.23657
0.00144448	0.27752	0.00144448	-0.23767
0.00144488	0.27617	0.00144488	-0.23685
0.00144528	0.27644	0.00144528	-0.23849
0.00144568	0.274	0.00144568	-0.24151
0.00144608	0.27698	0.00144608	-0.24316
0.00144648	0.27725	0.00144648	-0.24453
0.00144688	0.27806	0.00144688	-0.24755
0.00144728	0.27671	0.00144728	-0.24974
0.00144768	0.27617	0.00144768	-0.25166
0.00144808	0.27698	0.00144808	-0.25303
0.00144848	0.27752	0.00144848	-0.25852
0.00144888	0.27752	0.00144888	-0.26236
0.00144928	0.27644	0.00144928	-0.26757
0.00144968	0.27617	0.00144968	-0.27004
0.00145008	0.27536	0.00145008	-0.27663
0.00145048	0.27671	0.00145048	-0.27882
0.00145088	0.2759	0.00145088	-0.28431
0.00145128	0.27725	0.00145128	-0.28513
0.00145168	0.27671	0.00145168	-0.29007
0.00145208	0.27563	0.00145208	-0.29474
0.00145248	0.27617	0.00145248	-0.29775
0.00145288	0.27644	0.00145288	-0.30132
0.00145328	0.27509	0.00145328	-0.30351
0.00145368	0.27536	0.00145368	-0.30571
0.00145408	0.27536	0.00145408	-0.30845
0.00145448	0.27671	0.00145448	-0.3101
0.00145488	0.27617	0.00145488	-0.31257
0.00145528	0.27617	0.00145528	-0.3112
0.00145568	0.27563	0.00145568	-0.31504
0.00145608	0.27509	0.00145608	-0.31806
0.00145648	0.27482	0.00145648	-0.31751
0.00145688	0.27373	0.00145688	-0.31888
0.00145728	0.27671	0.00145728	-0.3208
0.00145768	0.27617	0.00145768	-0.31998
0.00145808	0.27563	0.00145808	-0.3208
0.00145848	0.27455	0.00145848	-0.32217
0.00145888	0.27536	0.00145888	-0.32245
0.00145928	0.27319	0.00145928	-0.32464
0.00145968	0.27455	0.00145968	-0.32464
0.00146008	0.27482	0.00146008	-0.32491
0.00146048	0.274	0.00146048	-0.32491
0.00146088	0.27427	0.00146088	-0.32601
0.00146128	0.27563	0.00146128	-0.32574
0.00146168	0.27455	0.00146168	-0.32629
0.00146208	0.27536	0.00146208	-0.32766
0.00146248	0.274	0.00146248	-0.32848
0.00146288	0.27536	0.00146288	-0.32958
0.00146328	0.274	0.00146328	-0.33013
0.00146368	0.27509	0.00146368	-0.32766
0.00146408	0.27455	0.00146408	-0.32958
0.00146448	0.27482	0.00146448	-0.32766
0.00146488	0.27427	0.00146488	-0.32519
0.00146528	0.27373	0.00146528	-0.32793
0.00146568	0.27509	0.00146568	-0.32711
0.00146608	0.27509	0.00146608	-0.32766
0.00146648	0.274	0.00146648	-0.32766
0.00146688	0.27346	0.00146688	-0.32903
0.00146728	0.274	0.00146728	-0.32985
0.00146768	0.27346	0.00146768	-0.32793
0.00146808	0.27292	0.00146808	-0.32738
0.00146848	0.27455	0.00146848	-0.32519
0.00146888	0.27427	0.00146888	-0.32409
0.00146928	0.27427	0.00146928	-0.32546
0.00146968	0.27346	0.00146968	-0.32327
0.00147008	0.27319	0.00147008	-0.32382
0.00147048	0.27373	0.00147048	-0.32409
0.00147088	0.27373	0.00147088	-0.3208
0.00147128	0.274	0.00147128	-0.32025
0.00147168	0.274	0.00147168	-0.31723
0.00147208	0.27455	0.00147208	-0.31394
0.00147248	0.27373	0.00147248	-0.31092
0.00147288	0.27509	0.00147288	-0.30736
0.00147328	0.27427	0.00147328	-0.30351
0.00147368	0.27319	0.00147368	-0.30132
0.00147408	0.27482	0.00147408	-0.29419
0.00147448	0.27238	0.00147448	-0.28897
0.00147488	0.27319	0.00147488	-0.28431
0.00147528	0.27211	0.00147528	-0.27663
0.00147568	0.27238	0.00147568	-0.27059
0.00147608	0.27157	0.00147608	-0.26072
0.00147648	0.27292	0.00147648	-0.25578
0.00147688	0.27292	0.00147688	-0.24425
0.00147728	0.27346	0.00147728	-0.23712
0.00147768	0.27346	0.00147768	-0.2256
0.00147808	0.27211	0.00147808	-0.21655
0.00147848	0.27265	0.00147848	-0.20804
0.00147888	0.27265	0.00147888	-0.19899
0.00147928	0.27319	0.00147928	-0.18692
0.00147968	0.27265	0.00147968	-0.17814
0.00148008	0.27292	0.00148008	-0.16524
0.00148048	0.27184	0.00148048	-0.15262
0.00148088	0.27238	0.00148088	-0.14412
0.00148128	0.27319	0.00148128	-0.13122
0.00148168	0.27211	0.00148168	-0.1208
0.00148208	0.27265	0.00148208	-0.1068
0.00148248	0.27238	0.00148248	-0.09501
0.00148288	0.27211	0.00148288	-0.08458
0.00148328	0.27292	0.00148328	-0.07388
0.00148368	0.27292	0.00148368	-0.05962
0.00148408	0.27265	0.00148408	-0.04754
0.00148448	0.27238	0.00148448	-0.0352
0.00148488	0.27211	0.00148488	-0.02203
0.00148528	0.27211	0.00148528	-0.01051
0.00148568	0.27211	0.00148568	0.00129
0.00148608	0.27184	0.00148608	0.01281
0.00148648	0.27021	0.00148648	0.02598
0.00148688	0.27265	0.00148688	0.03942
0.00148728	0.27184	0.00148728	0.05095
0.00148768	0.27184	0.00148768	0.06384
0.00148808	0.27265	0.00148808	0.07591
0.00148848	0.2713	0.00148848	0.08853
0.00148888	0.27211	0.00148888	0.10088
0.00148928	0.27292	0.00148928	0.11158
0.00148968	0.27184	0.00148968	0.12722
0.00149008	0.27157	0.00149008	0.13764
0.00149048	0.27184	0.00149048	0.14834
0.00149088	0.27265	0.00149088	0.16288
0.00149128	0.27292	0.00149128	0.17358
0.00149168	0.27292	0.00149168	0.18511
0.00149208	0.27103	0.00149208	0.19526
0.00149248	0.27103	0.00149248	0.2076
0.00149288	0.27157	0.00149288	0.21803
0.00149328	0.27103	0.00149328	0.22708
0.00149368	0.27211	0.00149368	0.23833
0.00149408	0.27292	0.00149408	0.24656
0.00149448	0.2713	0.00149448	0.25452
0.00149488	0.27184	0.00149488	0.26604
0.00149528	0.27157	0.00149528	0.27153
0.00149568	0.27455	0.00149568	0.27866
0.00149608	0.27076	0.00149608	0.28634
0.00149648	0.2713	0.00149648	0.29347
0.00149688	0.27238	0.00149688	0.30006
0.00149728	0.27238	0.00149728	0.30582
0.00149768	0.2713	0.00149768	0.31158
0.00149808	0.27211	0.00149808	0.31734
0.00149848	0.27184	0.00149848	0.3231
0.00149888	0.27319	0.00149888	0.32859
0.00149928	0.27211	0.00149928	0.33243
0.00149968	0.27265	0.00149968	0.33737
0.00150008	0.27319	0.00150008	0.34121
0.00150048	0.27211	0.00150048	0.3456
0.00150088	0.27292	0.00150088	0.35191
0.00150128	0.27157	0.00150128	0.35657
0.00150168	0.27373	0.00150168	0.35987
0.00150208	0.27184	0.00150208	0.36508
0.00150248	0.27211	0.00150248	0.36892
0.00150288	0.27319	0.00150288	0.37139
0.00150328	0.27319	0.00150328	0.37743
0.00150368	0.27103	0.00150368	0.38072
0.00150408	0.27211	0.00150408	0.38538
0.00150448	0.27184	0.00150448	0.38977
0.00150488	0.2713	0.00150488	0.39114
0.00150528	0.27265	0.00150528	0.39608
0.00150568	0.27238	0.00150568	0.398
0.00150608	0.27211	0.00150608	0.40157
0.00150648	0.2713	0.00150648	0.40623
0.00150688	0.27292	0.00150688	0.40898
0.00150728	0.27157	0.00150728	0.41337
0.00150768	0.27184	0.00150768	0.4183
0.00150808	0.27292	0.00150808	0.41748
0.00150848	0.27211	0.00150848	0.4216
0.00150888	0.27211	0.00150888	0.42653
0.00150928	0.27211	0.00150928	0.42983
0.00150968	0.27184	0.00150968	0.4323
0.00151008	0.27157	0.00151008	0.43669
0.00151048	0.27265	0.00151048	0.43806
0.00151088	0.27021	0.00151088	0.4419
0.00151128	0.27211	0.00151128	0.44464
0.00151168	0.27103	0.00151168	0.44629
0.00151208	0.27346	0.00151208	0.4504
0.00151248	0.27238	0.00151248	0.45315
0.00151288	0.27319	0.00151288	0.45671
0.00151328	0.27184	0.00151328	0.45808
0.00151368	0.27184	0.00151368	0.46028
0.00151408	0.2713	0.00151408	0.46549
0.00151448	0.27211	0.00151448	0.46522
0.00151488	0.27103	0.00151488	0.46796
0.00151528	0.27373	0.00151528	0.47125
0.00151568	0.27238	0.00151568	0.47564
0.00151608	0.27265	0.00151608	0.47702
0.00151648	0.27184	0.00151648	0.48031
0.00151688	0.27238	0.00151688	0.48168
0.00151728	0.27184	0.00151728	0.48552
0.00151768	0.27292	0.00151768	0.48799
0.00151808	0.2713	0.00151808	0.48991
0.00151848	0.27265	0.00151848	0.49293
0.00151888	0.27184	0.00151888	0.49293
0.00151928	0.27211	0.00151928	0.49732
0.00151968	0.27211	0.00151968	0.50226
0.00152008	0.27157	0.00152008	0.50226
0.00152048	0.27265	0.00152048	0.50418
0.00152088	0.27211	0.00152088	0.50637
0.00152128	0.27157	0.00152128	0.50939
0.00152168	0.27103	0.00152168	0.51131
0.00152208	0.27238	0.00152208	0.51405
0.00152248	0.27157	0.00152248	0.5146
0.00152288	0.27292	0.00152288	0.51625
0.00152328	0.27292	0.00152328	0.51844
0.00152368	0.27076	0.00152368	0.52009
0.00152408	0.274	0.00152408	0.52201
0.00152448	0.27211	0.00152448	0.52365
0.00152488	0.27319	0.00152488	0.52804
0.00152528	0.27455	0.00152528	0.52887
0.00152568	0.27184	0.00152568	0.53216
0.00152608	0.27319	0.00152608	0.53189
0.00152648	0.27021	0.00152648	0.53518
0.00152688	0.27319	0.00152688	0.53518
0.00152728	0.27292	0.00152728	0.53847
0.00152768	0.27319	0.00152768	0.54012
0.00152808	0.27184	0.00152808	0.54039
0.00152848	0.27455	0.00152848	0.54286
0.00152888	0.27319	0.00152888	0.54396
0.00152928	0.27157	0.00152928	0.54505
0.00152968	0.274	0.00152968	0.54643
0.00153008	0.27238	0.00153008	0.54835
0.00153048	0.27292	0.00153048	0.54917
0.00153088	0.27319	0.00153088	0.55136
0.00153128	0.27455	0.00153128	0.55274
0.00153168	0.27184	0.00153168	0.55383
0.00153208	0.27346	0.00153208	0.55767
0.00153248	0.27373	0.00153248	0.55603
0.00153288	0.27211	0.00153288	0.55822
0.00153328	0.27211	0.00153328	0.56152
0.00153368	0.27509	0.00153368	0.56206
0.00153408	0.274	0.00153408	0.56344
0.00153448	0.27319	0.00153448	0.56536
0.00153488	0.27482	0.00153488	0.56645
0.00153528	0.27211	0.00153528	0.56481
0.00153568	0.27292	0.00153568	0.56673
0.00153608	0.27292	0.00153608	0.5681
0.00153648	0.27427	0.00153648	0.56865
0.00153688	0.27211	0.00153688	0.57084
0.00153728	0.27319	0.00153728	0.57249
0.00153768	0.27346	0.00153768	0.57167
0.00153808	0.27455	0.00153808	0.57167
0.00153848	0.274	0.00153848	0.57359
0.00153888	0.27373	0.00153888	0.57496
0.00153928	0.27265	0.00153928	0.57304
0.00153968	0.27319	0.00153968	0.57551
0.00154008	0.27319	0.00154008	0.57688
0.00154048	0.27265	0.00154048	0.57798
0.00154088	0.27455	0.00154088	0.5788
0.00154128	0.27373	0.00154128	0.58237
0.00154168	0.27319	0.00154168	0.58099
0.00154208	0.27427	0.00154208	0.58182
0.00154248	0.27238	0.00154248	0.58291
0.00154288	0.27346	0.00154288	0.58237
0.00154328	0.274	0.00154328	0.58374
0.00154368	0.274	0.00154368	0.58484
0.00154408	0.27346	0.00154408	0.58291
0.00154448	0.27319	0.00154448	0.58346
0.00154488	0.27427	0.00154488	0.58538
0.00154528	0.27346	0.00154528	0.58648
0.00154568	0.27211	0.00154568	0.58621
0.00154608	0.274	0.00154608	0.58566
0.00154648	0.27482	0.00154648	0.58566
0.00154688	0.27536	0.00154688	0.58621
0.00154728	0.27455	0.00154728	0.58648
0.00154768	0.27373	0.00154768	0.58868
0.00154808	0.27319	0.00154808	0.58977
0.00154848	0.27455	0.00154848	0.58648
0.00154888	0.27455	0.00154888	0.58785
0.00154928	0.27455	0.00154928	0.58895
0.00154968	0.274	0.00154968	0.5895
0.00155008	0.27427	0.00155008	0.59032
0.00155048	0.27509	0.00155048	0.58922
0.00155088	0.27427	0.00155088	0.5884
0.00155128	0.27455	0.00155128	0.58922
0.00155168	0.27346	0.00155168	0.58922
0.00155208	0.27455	0.00155208	0.58922
0.00155248	0.27427	0.00155248	0.58895
0.00155288	0.27292	0.00155288	0.58922
0.00155328	0.27346	0.00155328	0.58813
0.00155368	0.27455	0.00155368	0.58758
0.00155408	0.27482	0.00155408	0.58922
0.00155448	0.27292	0.00155448	0.58895
0.00155488	0.27563	0.00155488	0.58703
0.00155528	0.27427	0.00155528	0.5884
0.00155568	0.274	0.00155568	0.58676
0.00155608	0.274	0.00155608	0.58895
0.00155648	0.27536	0.00155648	0.58785
0.00155688	0.274	0.00155688	0.58538
0.00155728	0.27319	0.00155728	0.58593
0.00155768	0.27346	0.00155768	0.58538
0.00155808	0.27292	0.00155808	0.5873
0.00155848	0.27482	0.00155848	0.58648
0.00155888	0.27373	0.00155888	0.58484
0.00155928	0.27373	0.00155928	0.58621
0.00155968	0.27346	0.00155968	0.58456
0.00156008	0.27536	0.00156008	0.58237
0.00156048	0.27427	0.00156048	0.58538
0.00156088	0.27509	0.00156088	0.58401
0.00156128	0.27427	0.00156128	0.58291
0.00156168	0.27455	0.00156168	0.58429
0.00156208	0.274	0.00156208	0.58127
0.00156248	0.27482	0.00156248	0.58099
0.00156288	0.27536	0.00156288	0.57962
0.00156328	0.27509	0.00156328	0.57825
0.00156368	0.27509	0.00156368	0.57798
0.00156408	0.274	0.00156408	0.57578
0.00156448	0.274	0.00156448	0.57606
0.00156488	0.27536	0.00156488	0.57688
0.00156528	0.27455	0.00156528	0.57523
0.00156568	0.27536	0.00156568	0.57386
0.00156608	0.27482	0.00156608	0.57414
0.00156648	0.27346	0.00156648	0.57139
0.00156688	0.27455	0.00156688	0.57194
0.00156728	0.27536	0.00156728	0.56975
0.00156768	0.27482	0.00156768	0.57029
0.00156808	0.27427	0.00156808	0.56837
0.00156848	0.274	0.00156848	0.56783
0.00156888	0.27536	0.00156888	0.56673
0.00156928	0.27482	0.00156928	0.56536
0.00156968	0.27455	0.00156968	0.56481
0.00157008	0.27536	0.00157008	0.56563
0.00157048	0.27509	0.00157048	0.56179
0.00157088	0.27482	0.00157088	0.56069
0.00157128	0.27617	0.00157128	0.56124
0.00157168	0.27806	0.00157168	0.55905
0.00157208	0.2759	0.00157208	0.5585
0.00157248	0.27536	0.00157248	0.55356
0.00157288	0.27427	0.00157288	0.55411
0.00157328	0.27427	0.00157328	0.55191
0.00157368	0.27482	0.00157368	0.55054
0.00157408	0.27617	0.00157408	0.55164
0.00157448	0.27671	0.00157448	0.54972
0.00157488	0.27671	0.00157488	0.54478
0.00157528	0.2759	0.00157528	0.54423
0.00157568	0.27671	0.00157568	0.54451
0.00157608	0.27644	0.00157608	0.54286
0.00157648	0.27509	0.00157648	0.54039
0.00157688	0.2759	0.00157688	0.53874
0.00157728	0.27644	0.00157728	0.5382
0.00157768	0.27725	0.00157768	0.53545
0.00157808	0.27644	0.00157808	0.53435
0.00157848	0.27482	0.00157848	0.53216
0.00157888	0.2759	0.00157888	0.53079
0.00157928	0.27644	0.00157928	0.52777
0.00157968	0.27671	0.00157968	0.52859
0.00158008	0.2759	0.00158008	0.52695
0.00158048	0.27509	0.00158048	0.52365
0.00158088	0.27536	0.00158088	0.52173
0.00158128	0.27563	0.00158128	0.52009
0.00158168	0.27536	0.00158168	0.51817
0.00158208	0.27563	0.00158208	0.51762
0.00158248	0.2759	0.00158248	0.51542
0.00158288	0.27617	0.00158288	0.51241
0.00158328	0.2759	0.00158328	0.50911
0.00158368	0.27725	0.00158368	0.50966
0.00158408	0.27482	0.00158408	0.50692
0.00158448	0.27563	0.00158448	0.50527
0.00158488	0.274	0.00158488	0.50418
0.00158528	0.27644	0.00158528	0.50006
0.00158568	0.27644	0.00158568	0.49787
0.00158608	0.27509	0.00158608	0.49759
0.00158648	0.2759	0.00158648	0.49293
0.00158688	0.2759	0.00158688	0.49128
0.00158728	0.27482	0.00158728	0.48909
0.00158768	0.27427	0.00158768	0.48634
0.00158808	0.27644	0.00158808	0.4836
0.00158848	0.27671	0.00158848	0.48278
0.00158888	0.27671	0.00158888	0.47894
0.00158928	0.2759	0.00158928	0.47674
0.00158968	0.27563	0.00158968	0.47564
0.00159008	0.27671	0.00159008	0.47509
0.00159048	0.27617	0.00159048	0.4718
0.00159088	0.27725	0.00159088	0.46796
0.00159128	0.27725	0.00159128	0.46632
0.00159168	0.2759	0.00159168	0.46522
0.00159208	0.27617	0.00159208	0.46193
0.00159248	0.27536	0.00159248	0.45644
0.00159288	0.27725	0.00159288	0.45726
0.00159328	0.27698	0.00159328	0.45287
0.00159368	0.27644	0.00159368	0.45095
0.00159408	0.27617	0.00159408	0.44739
0.00159448	0.27536	0.00159448	0.44574
0.00159488	0.2759	0.00159488	0.44437
0.00159528	0.2759	0.00159528	0.43998
0.00159568	0.27536	0.00159568	0.43751
0.00159608	0.27644	0.00159608	0.43257
0.00159648	0.27644	0.00159648	0.4312
0.00159688	0.27671	0.00159688	0.42955
0.00159728	0.27617	0.00159728	0.42599
0.00159768	0.2759	0.00159768	0.42297
0.00159808	0.27563	0.00159808	0.41995
0.00159848	0.27698	0.00159848	0.41776
0.00159888	0.27671	0.00159888	0.41282
0.00159928	0.27698	0.00159928	0.41282
0.00159968	0.27617	0.00159968	0.4098
0.00160008	0.27644	0.00160008	0.40404
0.00160048	0.27671	0.00160048	0.40294
0.00160088	0.2759	0.00160088	0.3991
0.00160128	0.27671	0.00160128	0.39444
0.00160168	0.27617	0.00160168	0.39471
0.00160208	0.27698	0.00160208	0.39005
0.00160248	0.27806	0.00160248	0.38813
0.00160288	0.27671	0.00160288	0.38291
0.00160328	0.27752	0.00160328	0.38017
0.00160368	0.27563	0.00160368	0.3766
0.00160408	0.27617	0.00160408	0.37358
0.00160448	0.27725	0.00160448	0.37029
0.00160488	0.27725	0.00160488	0.36535
0.00160528	0.27563	0.00160528	0.36179
0.00160568	0.27698	0.00160568	0.35959
0.00160608	0.2759	0.00160608	0.3552
0.00160648	0.27671	0.00160648	0.35191
0.00160688	0.27671	0.00160688	0.34834
0.00160728	0.27671	0.00160728	0.34286
0.00160768	0.27617	0.00160768	0.33874
0.00160808	0.27671	0.00160808	0.336
0.00160848	0.27671	0.00160848	0.33271
0.00160888	0.27752	0.00160888	0.32887
0.00160928	0.27698	0.00160928	0.32448
0.00160968	0.27698	0.00160968	0.32063
0.00161008	0.2759	0.00161008	0.3157
0.00161048	0.27752	0.00161048	0.31186
0.00161088	0.27644	0.00161088	0.30664
0.00161128	0.27617	0.00161128	0.30225
0.00161168	0.27509	0.00161168	0.29869
0.00161208	0.27563	0.00161208	0.29402
0.00161248	0.27617	0.00161248	0.291
0.00161288	0.27536	0.00161288	0.28662
0.00161328	0.27482	0.00161328	0.28195
0.00161368	0.27725	0.00161368	0.27811
0.00161408	0.27779	0.00161408	0.27262
0.00161448	0.27644	0.00161448	0.26878
0.00161488	0.27563	0.00161488	0.26522
0.00161528	0.27888	0.00161528	0.26
0.00161568	0.27671	0.00161568	0.25397
0.00161608	0.27644	0.00161608	0.25095
0.00161648	0.27725	0.00161648	0.24656
0.00161688	0.27617	0.00161688	0.2408
0.00161728	0.2759	0.00161728	0.23833
0.00161768	0.27671	0.00161768	0.23613
0.00161808	0.27725	0.00161808	0.23339
0.00161848	0.2786	0.00161848	0.22845
0.00161888	0.27617	0.00161888	0.22571
0.00161928	0.27671	0.00161928	0.22379
0.00161968	0.27617	0.00161968	0.21858
0.00162008	0.27725	0.00162008	0.2172
0.00162048	0.27725	0.00162048	0.21364
0.00162088	0.27482	0.00162088	0.21089
0.00162128	0.27915	0.00162128	0.2087
0.00162168	0.2759	0.00162168	0.20788
0.00162208	0.27427	0.00162208	0.20678
0.00162248	0.27698	0.00162248	0.20239
0.00162288	0.27698	0.00162288	0.20129
0.00162328	0.27563	0.00162328	0.20074
0.00162368	0.27725	0.00162368	0.19882
0.00162408	0.27482	0.00162408	0.19882
0.00162448	0.27671	0.00162448	0.19718
0.00162488	0.27617	0.00162488	0.1958
0.00162528	0.27671	0.00162528	0.19608
0.00162568	0.27698	0.00162568	0.19388
0.00162608	0.27725	0.00162608	0.19334
0.00162648	0.27671	0.00162648	0.19251
0.00162688	0.27671	0.00162688	0.19361
0.00162728	0.27644	0.00162728	0.19224
0.00162768	0.27644	0.00162768	0.19306
0.00162808	0.27725	0.00162808	0.19224
0.00162848	0.27617	0.00162848	0.19142
0.00162888	0.27617	0.00162888	0.19306
0.00162928	0.27644	0.00162928	0.19059
0.00162968	0.27833	0.00162968	0.19196
0.00163008	0.27752	0.00163008	0.19196
0.00163048	0.27671	0.00163048	0.19306
0.00163088	0.27725	0.00163088	0.19196
0.00163128	0.27644	0.00163128	0.19087
0.00163168	0.27752	0.00163168	0.19224
0.00163208	0.27563	0.00163208	0.19306
0.00163248	0.27644	0.00163248	0.19306
0.00163288	0.2759	0.00163288	0.19388
0.00163328	0.27509	0.00163328	0.19279
0.00163368	0.274	0.00163368	0.19388
0.00163408	0.27509	0.00163408	0.19361
0.00163448	0.27671	0.00163448	0.19306
0.00163488	0.27536	0.00163488	0.19279
0.00163528	0.274	0.00163528	0.19361
0.00163568	0.27644	0.00163568	0.19388
0.00163608	0.27644	0.00163608	0.19498
0.00163648	0.27563	0.00163648	0.19553
0.00163688	0.27644	0.00163688	0.1958
0.00163728	0.27455	0.00163728	0.19635
0.00163768	0.27617	0.00163768	0.19608
0.00163808	0.27427	0.00163808	0.1958
0.00163848	0.27671	0.00163848	0.19827
0.00163888	0.27671	0.00163888	0.19635
0.00163928	0.27536	0.00163928	0.19388
0.00163968	0.27725	0.00163968	0.19855
0.00164008	0.27482	0.00164008	0.19608
0.00164048	0.27509	0.00164048	0.19745
0.00164088	0.27536	0.00164088	0.19745
0.00164128	0.27319	0.00164128	0.19663
0.00164168	0.27563	0.00164168	0.19855
0.00164208	0.27536	0.00164208	0.20074
0.00164248	0.27644	0.00164248	0.20019
0.00164288	0.27373	0.00164288	0.20019
0.00164328	0.27752	0.00164328	0.20047
0.00164368	0.27752	0.00164368	0.20239
0.00164408	0.27644	0.00164408	0.20157
0.00164448	0.27671	0.00164448	0.20294
0.00164488	0.27563	0.00164488	0.20321
0.00164528	0.2759	0.00164528	0.20266
0.00164568	0.27671	0.00164568	0.20568
0.00164608	0.27644	0.00164608	0.20513
0.00164648	0.27563	0.00164648	0.20733
0.00164688	0.27617	0.00164688	0.20952
0.00164728	0.27536	0.00164728	0.20952
0.00164768	0.27536	0.00164768	0.21144
0.00164808	0.27617	0.00164808	0.21281
0.00164848	0.27536	0.00164848	0.21611
0.00164888	0.2759	0.00164888	0.21748
0.00164928	0.27644	0.00164928	0.22159
0.00164968	0.27536	0.00164968	0.22324
0.00165008	0.27617	0.00165008	0.2279
0.00165048	0.27482	0.00165048	0.23065
0.00165088	0.27563	0.00165088	0.23586
0.00165128	0.27536	0.00165128	0.2408
0.00165168	0.27536	0.00165168	0.24546
0.00165208	0.27833	0.00165208	0.24985
0.00165248	0.27482	0.00165248	0.25397
0.00165288	0.27671	0.00165288	0.25836
0.00165328	0.2759	0.00165328	0.26247
0.00165368	0.27698	0.00165368	0.26604
0.00165408	0.27509	0.00165408	0.27207
0.00165448	0.27617	0.00165448	0.27564
0.00165488	0.27455	0.00165488	0.28031
0.00165528	0.27617	0.00165528	0.28332
0.00165568	0.274	0.00165568	0.28634
0.00165608	0.2759	0.00165608	0.29073
0.00165648	0.27644	0.00165648	0.29128
0.00165688	0.27644	0.00165688	0.29457
0.00165728	0.2759	0.00165728	0.29594
0.00165768	0.27671	0.00165768	0.29814
0.00165808	0.2759	0.00165808	0.30033
0.00165848	0.27671	0.00165848	0.30253
0.00165888	0.27509	0.00165888	0.30308
0.00165928	0.27617	0.00165928	0.30417
0.00165968	0.27482	0.00165968	0.3039
0.00166008	0.27482	0.00166008	0.30582
0.00166048	0.27671	0.00166048	0.30609
0.00166088	0.2759	0.00166088	0.30801
0.00166128	0.27671	0.00166128	0.30966
0.00166168	0.27671	0.00166168	0.30801
0.00166208	0.27644	0.00166208	0.31158
0.00166248	0.27563	0.00166248	0.31076
0.00166288	0.27644	0.00166288	0.31268
0.00166328	0.27617	0.00166328	0.31432
0.00166368	0.27617	0.00166368	0.3135
0.00166408	0.27644	0.00166408	0.31378
0.00166448	0.27644	0.00166448	0.3124
0.00166488	0.27427	0.00166488	0.31295
0.00166528	0.27617	0.00166528	0.31268
0.00166568	0.27563	0.00166568	0.31323
0.00166608	0.27509	0.00166608	0.31378
0.00166648	0.27536	0.00166648	0.31295
0.00166688	0.27509	0.00166688	0.3157
0.00166728	0.27509	0.00166728	0.31378
0.00166768	0.27617	0.00166768	0.31268
0.00166808	0.27346	0.00166808	0.31295
0.00166848	0.27482	0.00166848	0.31213
0.00166888	0.27617	0.00166888	0.31487
0.00166928	0.27644	0.00166928	0.31076
0.00166968	0.27482	0.00166968	0.31405
0.00167008	0.27536	0.00167008	0.31213
0.00167048	0.27671	0.00167048	0.31131
0.00167088	0.27482	0.00167088	0.31131
0.00167128	0.27671	0.00167128	0.31323
0.00167168	0.27644	0.00167168	0.3135
0.00167208	0.27725	0.00167208	0.31295
0.00167248	0.27536	0.00167248	0.31131
0.00167288	0.27509	0.00167288	0.31158
0.00167328	0.27482	0.00167328	0.31103
0.00167368	0.2759	0.00167368	0.31021
0.00167408	0.2759	0.00167408	0.31158
0.00167448	0.27644	0.00167448	0.31186
0.00167488	0.27482	0.00167488	0.30966
0.00167528	0.27536	0.00167528	0.30911
0.00167568	0.27482	0.00167568	0.30939
0.00167608	0.27482	0.00167608	0.30801
0.00167648	0.27671	0.00167648	0.30637
0.00167688	0.27617	0.00167688	0.30582
0.00167728	0.27644	0.00167728	0.30527
0.00167768	0.27644	0.00167768	0.30555
0.00167808	0.27509	0.00167808	0.30417
0.00167848	0.27671	0.00167848	0.30362
0.00167888	0.27617	0.00167888	0.30225
0.00167928	0.27617	0.00167928	0.3017
0.00167968	0.27644	0.00167968	0.29951
0.00168008	0.27482	0.00168008	0.29731
0.00168048	0.27617	0.00168048	0.29649
0.00168088	0.27563	0.00168088	0.29402
0.00168128	0.27644	0.00168128	0.2932
0.00168168	0.27373	0.00168168	0.29183
0.00168208	0.27455	0.00168208	0.28881
0.00168248	0.27671	0.00168248	0.28826
0.00168288	0.27509	0.00168288	0.28799
0.00168328	0.27427	0.00168328	0.28524
0.00168368	0.2759	0.00168368	0.28634
0.00168408	0.27725	0.00168408	0.28469
0.00168448	0.27698	0.00168448	0.28277
0.00168488	0.27617	0.00168488	0.28223
0.00168528	0.27671	0.00168528	0.28305
0.00168568	0.27482	0.00168568	0.28552
0.00168608	0.27427	0.00168608	0.28634
0.00168648	0.27671	0.00168648	0.28799
0.00168688	0.27671	0.00168688	0.28936
0.00168728	0.27644	0.00168728	0.29046
0.00168768	0.2759	0.00168768	0.2932
0.00168808	0.27617	0.00168808	0.29567
0.00168848	0.2759	0.00168848	0.29841
0.00168888	0.27427	0.00168888	0.30033
0.00168928	0.27536	0.00168928	0.30472
0.00168968	0.27427	0.00168968	0.30719
0.00169008	0.27617	0.00169008	0.30829
0.00169048	0.27536	0.00169048	0.31295
0.00169088	0.27563	0.00169088	0.31789
0.00169128	0.27617	0.00169128	0.31871
0.00169168	0.2759	0.00169168	0.32365
0.00169208	0.2759	0.00169208	0.32832
0.00169248	0.27644	0.00169248	0.32722
0.00169288	0.27536	0.00169288	0.33188
0.00169328	0.27644	0.00169328	0.33463
0.00169368	0.27617	0.00169368	0.33929
0.00169408	0.27563	0.00169408	0.34231
0.00169448	0.2759	0.00169448	0.3478
0.00169488	0.27536	0.00169488	0.34889
0.00169528	0.27482	0.00169528	0.35191
0.00169568	0.27725	0.00169568	0.35548
0.00169608	0.27509	0.00169608	0.35877
0.00169648	0.2759	0.00169648	0.36179
0.00169688	0.27563	0.00169688	0.36426
0.00169728	0.2759	0.00169728	0.36837
0.00169768	0.27563	0.00169768	0.37084
0.00169808	0.27644	0.00169808	0.37358
0.00169848	0.27536	0.00169848	0.37688
0.00169888	0.27536	0.00169888	0.38017
0.00169928	0.27644	0.00169928	0.38236
0.00169968	0.27455	0.00169968	0.38511
0.00170008	0.27617	0.00170008	0.3884
0.00170048	0.27644	0.00170048	0.39279
0.00170088	0.27725	0.00170088	0.39663
0.00170128	0.27536	0.00170128	0.39663
0.00170168	0.27671	0.00170168	0.40047
0.00170208	0.27644	0.00170208	0.40404
0.00170248	0.27617	0.00170248	0.4076
0.00170288	0.27455	0.00170288	0.40788
0.00170328	0.2759	0.00170328	0.41227
0.00170368	0.27752	0.00170368	0.41501
0.00170408	0.27536	0.00170408	0.41803
0.00170448	0.27536	0.00170448	0.41968
0.00170488	0.27509	0.00170488	0.42352
0.00170528	0.27455	0.00170528	0.42599
0.00170568	0.27265	0.00170568	0.42873
0.00170608	0.27427	0.00170608	0.43202
0.00170648	0.2759	0.00170648	0.43476
0.00170688	0.2759	0.00170688	0.43559
0.00170728	0.27644	0.00170728	0.43861
0.00170768	0.27563	0.00170768	0.44217
0.00170808	0.27671	0.00170808	0.44629
0.00170848	0.2759	0.00170848	0.44656
0.00170888	0.27644	0.00170888	0.45013
0.00170928	0.27698	0.00170928	0.44985
0.00170968	0.27509	0.00170968	0.45397
0.00171008	0.27563	0.00171008	0.45534
0.00171048	0.27671	0.00171048	0.45946
0.00171088	0.27779	0.00171088	0.46165
0.00171128	0.27725	0.00171128	0.46193
0.00171168	0.27725	0.00171168	0.46604
0.00171208	0.27725	0.00171208	0.46824
0.00171248	0.27617	0.00171248	0.47043
0.00171288	0.27725	0.00171288	0.47317
0.00171328	0.27725	0.00171328	0.47455
0.00171368	0.27536	0.00171368	0.47756
0.00171408	0.27482	0.00171408	0.47976
0.00171448	0.27671	0.00171448	0.48168
0.00171488	0.27725	0.00171488	0.4836
0.00171528	0.27563	0.00171528	0.48689
0.00171568	0.27563	0.00171568	0.48881
0.00171608	0.27617	0.00171608	0.49101
0.00171648	0.27698	0.00171648	0.4921
0.00171688	0.27671	0.00171688	0.49457
0.00171728	0.27644	0.00171728	0.49677
0.00171768	0.27509	0.00171768	0.49924
0.00171808	0.27671	0.00171808	0.50061
0.00171848	0.27671	0.00171848	0.5028
0.00171888	0.27752	0.00171888	0.50335
0.00171928	0.27725	0.00171928	0.50637
0.00171968	0.27725	0.00171968	0.50911
0.00172008	0.2759	0.00172008	0.50966
0.00172048	0.27752	0.00172048	0.51049
0.00172088	0.27617	0.00172088	0.51241
0.00172128	0.27644	0.00172128	0.51405
0.00172168	0.27617	0.00172168	0.5168
0.00172208	0.27617	0.00172208	0.51762
0.00172248	0.27536	0.00172248	0.52009
0.00172288	0.27779	0.00172288	0.52311
0.00172328	0.27563	0.00172328	0.52365
0.00172368	0.27617	0.00172368	0.52448
0.00172408	0.27644	0.00172408	0.5275
0.00172448	0.27779	0.00172448	0.5264
0.00172488	0.27644	0.00172488	0.52887
0.00172528	0.27644	0.00172528	0.53216
0.00172568	0.27725	0.00172568	0.53326
0.00172608	0.27563	0.00172608	0.53435
0.00172648	0.27671	0.00172648	0.53847
0.00172688	0.27942	0.00172688	0.53847
0.00172728	0.27969	0.00172728	0.53984
0.00172768	0.27725	0.00172768	0.53957
0.00172808	0.27779	0.00172808	0.54259
0.00172848	0.27698	0.00172848	0.54341
0.00172888	0.27752	0.00172888	0.54341
0.00172928	0.27617	0.00172928	0.54615
0.00172968	0.27698	0.00172968	0.54725
0.00173008	0.27698	0.00173008	0.54807
0.00173048	0.27806	0.00173048	0.55054
0.00173088	0.27806	0.00173088	0.55027
0.00173128	0.27806	0.00173128	0.55164
0.00173168	0.27725	0.00173168	0.54944
0.00173208	0.27806	0.00173208	0.55466
0.00173248	0.27725	0.00173248	0.55521
0.00173288	0.27725	0.00173288	0.5563
0.00173328	0.27752	0.00173328	0.55575
0.00173368	0.27806	0.00173368	0.5574
0.00173408	0.27752	0.00173408	0.55987
0.00173448	0.2759	0.00173448	0.55987
0.00173488	0.27833	0.00173488	0.56152
0.00173528	0.2786	0.00173528	0.56179
0.00173568	0.27644	0.00173568	0.56316
0.00173608	0.27779	0.00173608	0.56344
0.00173648	0.27725	0.00173648	0.56289
0.00173688	0.27752	0.00173688	0.56371
0.00173728	0.27806	0.00173728	0.56508
0.00173768	0.27698	0.00173768	0.56783
0.00173808	0.27969	0.00173808	0.56673
0.00173848	0.27833	0.00173848	0.5659
0.00173888	0.27671	0.00173888	0.56865
0.00173928	0.27617	0.00173928	0.56892
0.00173968	0.27725	0.00173968	0.56947
0.00174008	0.27725	0.00174008	0.57167
0.00174048	0.27833	0.00174048	0.57002
0.00174088	0.27752	0.00174088	0.57139
0.00174128	0.27779	0.00174128	0.57194
0.00174168	0.27806	0.00174168	0.57386
0.00174208	0.27779	0.00174208	0.57304
0.00174248	0.27617	0.00174248	0.57194
0.00174288	0.27942	0.00174288	0.57496
0.00174328	0.27888	0.00174328	0.57386
0.00174368	0.27806	0.00174368	0.57688
0.00174408	0.27752	0.00174408	0.57523
0.00174448	0.27725	0.00174448	0.57496
0.00174488	0.2759	0.00174488	0.57688
0.00174528	0.27779	0.00174528	0.5766
0.00174568	0.27698	0.00174568	0.57633
0.00174608	0.27833	0.00174608	0.57606
0.00174648	0.27752	0.00174648	0.57633
0.00174688	0.27725	0.00174688	0.57633
0.00174728	0.27806	0.00174728	0.5777
0.00174768	0.27752	0.00174768	0.5766
0.00174808	0.27698	0.00174808	0.57743
0.00174848	0.27752	0.00174848	0.57633
0.00174888	0.27725	0.00174888	0.5766
0.00174928	0.27888	0.00174928	0.57743
0.00174968	0.27888	0.00174968	0.57633
0.00175008	0.27725	0.00175008	0.57743
0.00175048	0.2786	0.00175048	0.57633
0.00175088	0.27698	0.00175088	0.57578
0.00175128	0.27725	0.00175128	0.57551
0.00175168	0.27806	0.00175168	0.57496
0.00175208	0.27779	0.00175208	0.57551
0.00175248	0.27942	0.00175248	0.57606
0.00175288	0.27888	0.00175288	0.57468
0.00175328	0.27833	0.00175328	0.57551
0.00175368	0.27888	0.00175368	0.57468
0.00175408	0.27942	0.00175408	0.57331
0.00175448	0.27915	0.00175448	0.57496
0.00175488	0.27942	0.00175488	0.57304
0.00175528	0.27779	0.00175528	0.57331
0.00175568	0.27752	0.00175568	0.57304
0.00175608	0.27779	0.00175608	0.57331
0.00175648	0.27888	0.00175648	0.57359
0.00175688	0.27888	0.00175688	0.57194
0.00175728	0.27888	0.00175728	0.56975
0.00175768	0.27915	0.00175768	0.57002
0.00175808	0.27888	0.00175808	0.57139
0.00175848	0.27915	0.00175848	0.5692
0.00175888	0.27888	0.00175888	0.56728
0.00175928	0.28023	0.00175928	0.56755
0.00175968	0.27888	0.00175968	0.56673
0.00176008	0.27779	0.00176008	0.56728
0.00176048	0.27671	0.00176048	0.5659
0.00176088	0.27833	0.00176088	0.56508
0.00176128	0.27752	0.00176128	0.56316
0.00176168	0.28023	0.00176168	0.56289
0.00176208	0.27725	0.00176208	0.56069
0.00176248	0.2786	0.00176248	0.56042
0.00176288	0.27969	0.00176288	0.56042
0.00176328	0.2805	0.00176328	0.55905
0.00176368	0.27779	0.00176368	0.55767
0.00176408	0.2786	0.00176408	0.5574
0.00176448	0.28077	0.00176448	0.55521
0.00176488	0.27752	0.00176488	0.55328
0.00176528	0.27915	0.00176528	0.55274
0.00176568	0.27996	0.00176568	0.55246
0.00176608	0.27942	0.00176608	0.5489
0.00176648	0.27888	0.00176648	0.54944
0.00176688	0.27752	0.00176688	0.55109
0.00176728	0.2786	0.00176728	0.54725
0.00176768	0.27942	0.00176768	0.54533
0.00176808	0.27969	0.00176808	0.54533
0.00176848	0.27969	0.00176848	0.54451
0.00176888	0.27942	0.00176888	0.54313
0.00176928	0.27888	0.00176928	0.54121
0.00176968	0.27833	0.00176968	0.53902
0.00177008	0.27969	0.00177008	0.53682
0.00177048	0.27969	0.00177048	0.53737
0.00177088	0.27779	0.00177088	0.53463
0.00177128	0.27996	0.00177128	0.53353
0.00177168	0.27833	0.00177168	0.53134
0.00177208	0.28023	0.00177208	0.53161
0.00177248	0.28077	0.00177248	0.52832
0.00177288	0.28104	0.00177288	0.5264
0.00177328	0.27969	0.00177328	0.5253
0.00177368	0.27779	0.00177368	0.52393
0.00177408	0.27915	0.00177408	0.51954
0.00177448	0.27888	0.00177448	0.52009
0.00177488	0.27888	0.00177488	0.51981
0.00177528	0.27888	0.00177528	0.5168
0.00177568	0.2805	0.00177568	0.51323
0.00177608	0.2805	0.00177608	0.51049
0.00177648	0.27996	0.00177648	0.51021
0.00177688	0.27969	0.00177688	0.50829
0.00177728	0.28023	0.00177728	0.50582
0.00177768	0.27888	0.00177768	0.50335
0.00177808	0.28023	0.00177808	0.50116
0.00177848	0.27806	0.00177848	0.49896
0.00177888	0.27888	0.00177888	0.49814
0.00177928	0.27833	0.00177928	0.49595
0.00177968	0.27888	0.00177968	0.49375
0.00178008	0.27996	0.00178008	0.49238
0.00178048	0.27969	0.00178048	0.48936
0.00178088	0.28023	0.00178088	0.48607
0.00178128	0.27942	0.00178128	0.48333
0.00178168	0.27888	0.00178168	0.48333
0.00178208	0.2805	0.00178208	0.48031
0.00178248	0.27969	0.00178248	0.47976
0.00178288	0.27888	0.00178288	0.47482
0.00178328	0.28023	0.00178328	0.47455
0.00178368	0.2805	0.00178368	0.46824
0.00178408	0.27942	0.00178408	0.46632
0.00178448	0.27969	0.00178448	0.46577
0.00178488	0.27888	0.00178488	0.4633
0.00178528	0.27969	0.00178528	0.46001
0.00178568	0.27969	0.00178568	0.45644
0.00178608	0.27888	0.00178608	0.45424
0.00178648	0.27915	0.00178648	0.45232
0.00178688	0.2805	0.00178688	0.44766
0.00178728	0.27942	0.00178728	0.44574
0.00178768	0.27996	0.00178768	0.44272
0.00178808	0.27969	0.00178808	0.43915
0.00178848	0.27942	0.00178848	0.43641
0.00178888	0.2805	0.00178888	0.43367
0.00178928	0.2805	0.00178928	0.43257
0.00178968	0.27996	0.00178968	0.42983
0.00179008	0.28023	0.00179008	0.42379
0.00179048	0.27996	0.00179048	0.4216
0.00179088	0.27996	0.00179088	0.41858
0.00179128	0.2805	0.00179128	0.41501
0.00179168	0.28104	0.00179168	0.41254
0.00179208	0.27996	0.00179208	0.40788
0.00179248	0.28023	0.00179248	0.40733
0.00179288	0.28023	0.00179288	0.40267
0.00179328	0.27942	0.00179328	0.40129
0.00179368	0.2805	0.00179368	0.39636
0.00179408	0.27888	0.00179408	0.39306
0.00179448	0.27942	0.00179448	0.3884
0.00179488	0.2786	0.00179488	0.38593
0.00179528	0.28104	0.00179528	0.38044
0.00179568	0.27942	0.00179568	0.37825
0.00179608	0.2786	0.00179608	0.37441
0.00179648	0.27942	0.00179648	0.36919
0.00179688	0.27942	0.00179688	0.36673
0.00179728	0.2805	0.00179728	0.36124
0.00179768	0.28023	0.00179768	0.3574
0.00179808	0.28158	0.00179808	0.35575
0.00179848	0.27942	0.00179848	0.34834
0.00179888	0.27806	0.00179888	0.34478
0.00179928	0.2786	0.00179928	0.33956
0.00179968	0.28023	0.00179968	0.33682
